frame	time(s)	intensity	F1(Hz)	B1(Hz)	F2(Hz)	B2(Hz)	F3(Hz)	B3(Hz)
1	0.001	0.000003	1065.040	1317.832	2551.639	636.830	5375.223	1134.167
2	0.002	0.000003	1507.956	595.853	2691.370	807.502	--undefined--	--undefined--
3	0.003	0.000002	1134.495	574.890	2944.638	345.236	5200.515	1092.838
4	0.004	0.000002	1446.399	629.666	4659.784	1252.178	--undefined--	--undefined--
5	0.005	0.000003	1085.579	1383.243	2812.996	574.232	--undefined--	--undefined--
6	0.006	0.000003	1311.321	1324.992	1503.917	2141.130	4020.028	1649.711
7	0.007	0.000004	2314.030	642.180	5264.465	1226.863	--undefined--	--undefined--
8	0.008	0.00003	1426.774	748.648	2579.979	721.079	--undefined--	--undefined--
9	0.009	0.00003	1347.494	489.414	2326.387	620.097	--undefined--	--undefined--
10	0.010	0.00003	1393.128	413.726	2334.250	576.468	3966.337	5677.262
11	0.011	0.000006	1277.795	695.636	1277.873	4122.655	3893.669	2226.122
12	0.012	0.00005	357.963	813.195	2355.053	2008.583	--undefined--	--undefined--
13	0.013	0.00012	1209.445	488.658	2109.956	501.420	--undefined--	--undefined--
14	0.014	0.00012	1308.961	510.996	2200.530	417.282	--undefined--	--undefined--
15	0.015	0.00004	1364.462	1134.857	2059.377	3208.480	--undefined--	--undefined--
16	0.016	0.00025	826.966	1424.013	1794.047	1264.062	4702.441	3461.557
17	0.017	0.00025	960.185	677.791	3122.410	1114.337	--undefined--	--undefined--
18	0.018	0.00018	1649.820	1247.832	2181.264	1199.314	--undefined--	--undefined--
19	0.019	0.00534	1348.376	1295.034	2483.139	1412.320	--undefined--	--undefined--
20	0.020	0.00534	1085.727	1404.658	1951.226	1172.602	2897.470	1302.638
21	0.021	0.00176	1382.970	426.665	2315.011	492.065	--undefined--	--undefined--
22	0.022	0.00670	1794.138	1178.094	2745.877	1416.390	--undefined--	--undefined--
23	0.023	0.00670	1325.020	841.355	2375.843	830.769	--undefined--	--undefined--
24	0.024	0.00268	1278.566	557.489	2168.135	610.007	3545.122	3495.566
25	0.025	0.01206	1340.731	4238.093	2008.276	891.970	3612.238	2073.290
26	0.026	0.01206	1083.593	855.546	2085.928	855.470	--undefined--	--undefined--
27	0.027	0.00447	1551.336	694.184	2660.367	1074.342	--undefined--	--undefined--
28	0.028	0.01290	2044.739	620.027	3354.926	1769.116	--undefined--	--undefined--
29	0.029	0.01290	1199.096	743.430	2237.697	782.368	--undefined--	--undefined--
30	0.030	0.00769	1532.546	493.320	2541.267	668.077	--undefined--	--undefined--
31	0.031	0.01252	2158.566	559.931	3357.608	1303.757	--undefined--	--undefined--
32	0.032	0.01252	1153.798	712.952	2179.543	831.592	--undefined--	--undefined--
33	0.033	0.00782	1753.575	587.202	2875.086	754.540	--undefined--	--undefined--
34	0.034	0.01908	2452.871	990.776	3356.610	2549.115	--undefined--	--undefined--
35	0.035	0.01908	1080.715	802.505	2114.018	1051.425	3687.086	2218.655
36	0.036	0.00488	1198.405	839.437	2348.186	801.414	3375.827	610.275
37	0.037	0.02053	584.498	1621.776	2420.584	988.161	3646.216	1266.555
38	0.038	0.02053	1228.385	988.183	2534.361	1143.373	--undefined--	--undefined--
39	0.039	0.00459	1121.193	617.907	2247.477	743.084	3325.214	546.410
40	0.040	0.02126	485.314	2957.397	2367.660	1831.405	3313.062	2182.882
41	0.041	0.02126	1224.232	1003.521	2507.796	1338.592	--undefined--	--undefined--
42	0.042	0.01607	1317.017	852.002	2870.369	1289.260	--undefined--	--undefined--
43	0.043	0.01820	932.662	1291.130	2298.632	1393.445	3524.715	1224.189
44	0.044	0.01820	1177.990	771.747	2011.078	1609.550	3973.501	2088.352
45	0.045	0.02713	1335.794	759.633	3520.933	3866.468	--undefined--	--undefined--
46	0.046	0.02713	1052.149	604.954	2122.835	916.620	3436.340	698.156
47	0.047	0.01267	1312.448	711.651	1671.122	1586.541	4024.744	845.663
48	0.048	0.03245	1227.329	812.369	2681.989	999.332	--undefined--	--undefined--
49	0.049	0.03245	1310.740	618.194	3251.488	903.283	--undefined--	--undefined--
50	0.050	0.01373	1203.660	753.063	2462.228	1164.245	3788.463	1061.259
51	0.051	0.03803	1155.236	891.494	2708.257	793.416	--undefined--	--undefined--
52	0.052	0.03803	980.308	900.933	1807.000	1126.299	3397.275	618.116
53	0.053	0.02032	1206.572	1397.647	2917.980	833.298	4300.398	2225.600
54	0.054	0.03767	1020.497	507.300	3261.575	798.257	--undefined--	--undefined--
55	0.055	0.03767	1285.906	777.533	2621.433	1171.573	--undefined--	--undefined--
56	0.056	0.01340	1435.179	1406.568	3012.647	920.718	3763.450	4128.367
57	0.057	0.04618	830.614	863.360	1986.599	950.297	3414.419	643.299
58	0.058	0.04618	1348.787	807.576	2914.520	829.523	--undefined--	--undefined--
59	0.059	0.04317	842.057	903.733	1751.253	1248.713	3262.700	302.066
60	0.060	0.04317	998.779	451.451	1909.046	553.629	3270.222	478.031
61	0.061	0.01643	1281.993	786.367	2346.339	1505.617	3533.772	853.851
62	0.062	0.04663	1235.727	1023.851	3370.141	928.690	--undefined--	--undefined--
63	0.063	0.04663	945.223	893.844	1785.630	866.321	3397.001	929.289
64	0.064	0.01479	2022.657	586.326	3003.583	842.638	4015.781	1794.421
65	0.065	0.03890	952.395	833.588	1840.737	974.747	3760.208	799.238
66	0.066	0.03890	1243.255	982.508	2361.560	1562.351	--undefined--	--undefined--
67	0.067	0.04080	626.642	784.142	2399.327	1092.969	3462.123	539.708
68	0.068	0.04080	926.459	621.674	1848.418	660.159	3446.786	659.223
69	0.069	0.02229	1062.948	519.580	1977.120	591.974	3176.494	556.655
70	0.070	0.02844	1094.418	600.197	2881.161	1520.156	--undefined--	--undefined--
71	0.071	0.02844	818.411	723.141	1771.800	634.798	3309.181	704.804
72	0.072	0.01497	1208.433	439.089	3244.545	5546.380	3377.501	761.231
73	0.073	0.02440	903.630	701.161	1888.005	864.513	3509.029	834.806
74	0.074	0.02440	833.841	491.617	1672.940	418.646	3464.213	540.159
75	0.075	0.01944	1047.520	733.464	2181.948	1140.911	3468.560	621.872
76	0.076	0.01944	807.101	593.830	1718.597	547.908	3435.876	588.004
77	0.077	0.01322	1184.939	782.475	2546.877	1321.999	--undefined--	--undefined--
78	0.078	0.01273	609.364	634.196	1565.277	610.987	3380.743	484.367
79	0.079	0.01273	782.300	771.636	1746.972	705.828	3422.398	921.558
80	0.080	0.00638	708.668	898.644	1797.627	793.206	3300.762	773.987
81	0.081	0.00849	844.260	887.245	1765.487	936.321	3271.026	1211.830
82	0.082	0.00849	913.095	615.073	1740.984	695.572	3441.785	1916.084
83	0.083	0.00434	880.836	2382.970	3244.661	701.187	--undefined--	--undefined--
84	0.084	0.00434	815.599	488.737	1662.280	457.509	3550.645	562.364
85	0.085	0.00226	869.627	564.371	1809.561	1081.505	3143.408	507.754
86	0.086	0.00116	1009.443	571.231	2047.763	528.410	3616.440	1582.728
87	0.087	0.00116	687.112	630.228	1685.847	508.971	3621.173	917.847
88	0.088	0.00040	585.187	979.044	1612.688	856.732	3542.655	1933.516
89	0.089	0.00040	544.905	1435.781	1151.993	1435.272	3364.973	426.781
90	0.090	0.00010	838.114	1140.998	1831.857	804.449	--undefined--	--undefined--
91	0.091	0.00011	1081.295	485.634	2896.757	747.450	--undefined--	--undefined--
92	0.092	0.00058	688.566	916.878	1724.346	912.362	3330.489	644.720
93	0.093	0.00058	1138.264	1085.567	1890.183	821.548	3370.591	535.419
94	0.094	0.00060	1303.502	637.401	2333.980	817.989	--undefined--	--undefined--
95	0.095	0.00060	831.254	670.484	1689.621	739.004	2996.326	1443.717
96	0.096	0.00028	1065.140	983.705	2132.842	1373.888	--undefined--	--undefined--
97	0.097	0.00058	1418.202	632.658	3123.656	568.287	--undefined--	--undefined--
98	0.098	0.00058	547.385	1519.782	1926.216	1075.878	--undefined--	--undefined--
99	0.099	0.00043	1018.964	654.068	2001.670	1146.761	3330.288	1490.040
100	0.100	0.00043	531.843	620.115	1596.921	651.240	2991.402	637.783
101	0.101	0.00023	455.060	640.332	1738.087	1151.045	3405.717	749.713
102	0.102	0.00035	247.882	768.975	2130.697	507.999	3177.102	445.598
103	0.103	0.00035	971.976	583.456	3005.040	711.635	--undefined--	--undefined--
104	0.104	0.00026	1176.077	749.051	3163.651	2978.204	--undefined--	--undefined--
105	0.105	0.00046	508.520	828.608	1553.299	935.648	3041.464	671.264
106	0.106	0.00046	969.516	1122.687	3781.166	805.416	--undefined--	--undefined--
107	0.107	0.00057	837.836	1163.868	1856.597	874.101	2962.216	833.235
108	0.108	0.00057	690.911	1057.604	1659.081	1376.328	3291.693	897.523
109	0.109	0.00033	973.012	578.360	2589.821	3103.587	--undefined--	--undefined--
110	0.110	0.00049	1549.842	460.686	3444.869	1279.798	--undefined--	--undefined--
111	0.111	0.00049	1212.551	1679.500	2606.698	1217.135	--undefined--	--undefined--
112	0.112	0.00034	1062.968	710.479	2032.724	658.542	--undefined--	--undefined--
113	0.113	0.00055	537.188	985.318	1605.790	986.827	2928.344	1213.424
114	0.114	0.00055	1020.973	1073.606	2399.486	1202.122	--undefined--	--undefined--
115	0.115	0.00052	811.412	1082.897	1718.702	866.143	2844.107	1067.988
116	0.116	0.00052	561.422	603.409	1546.375	478.916	3965.511	1550.082
117	0.117	0.00039	1109.840	849.703	3935.481	2590.948	--undefined--	--undefined--
118	0.118	0.00062	287.963	1888.624	1536.583	428.388	3425.987	703.646
119	0.119	0.00062	1090.365	1635.968	1828.552	1612.382	3395.148	2590.513
120	0.120	0.00043	620.286	859.481	1587.609	698.344	5085.784	3275.701
121	0.121	0.00059	1071.874	726.692	2183.135	823.514	--undefined--	--undefined--
122	0.122	0.00059	522.111	744.930	1732.558	769.502	3514.127	677.196
123	0.123	0.00064	1300.474	657.252	2481.719	983.182	--undefined--	--undefined--
124	0.124	0.00064	497.948	824.489	1476.845	726.099	3569.455	1224.536
125	0.125	0.00040	415.696	636.706	1259.215	533.076	3450.404	894.890
126	0.126	0.00066	1330.775	1015.136	1917.202	1075.123	3311.640	642.123
127	0.127	0.00066	1849.743	1081.675	3254.205	1253.575	--undefined--	--undefined--
128	0.128	0.00039	459.213	724.397	1368.131	795.931	3412.936	628.926
129	0.129	0.00064	536.008	702.720	1505.949	593.699	3221.373	549.991
130	0.130	0.00064	936.288	829.963	1669.925	1081.238	3738.350	463.869
131	0.131	0.00067	621.023	828.509	1589.512	776.239	3351.080	440.842
132	0.132	0.00067	492.185	629.992	1524.488	664.069	2805.245	661.312
133	0.133	0.00056	589.093	1007.628	1680.438	1427.676	3437.962	865.192
134	0.134	0.00074	1379.558	516.249	2366.705	631.585	3441.127	564.987
135	0.135	0.00074	443.758	551.238	1424.544	555.854	3535.025	436.747
136	0.136	0.00047	945.918	801.616	3319.856	429.343	--undefined--	--undefined--
137	0.137	0.00068	1029.276	962.556	2110.645	1181.214	3450.512	560.063
138	0.138	0.00068	428.712	346.303	2295.398	1118.293	3609.551	775.468
139	0.139	0.00043	965.971	568.270	3269.877	763.298	--undefined--	--undefined--
140	0.140	0.00071	544.379	735.788	1602.627	885.631	3214.562	487.575
141	0.141	0.00071	902.453	540.549	1931.078	2090.724	3555.459	587.073
142	0.142	0.00067	582.239	777.087	1746.478	921.180	3168.033	477.014
143	0.143	0.00067	455.704	567.639	1406.570	587.193	2478.156	562.181
144	0.144	0.00065	656.945	958.828	1891.843	1502.817	3310.110	866.097
145	0.145	0.00068	1079.050	1275.658	2188.888	803.419	3320.639	666.597
146	0.146	0.00068	862.680	1226.336	2181.593	1194.452	--undefined--	--undefined--
147	0.147	0.00058	668.230	922.166	3275.785	477.268	--undefined--	--undefined--
148	0.148	0.00082	1343.667	1157.210	2278.440	952.044	3503.506	590.081
149	0.149	0.00082	440.374	492.502	2621.170	1210.266	--undefined--	--undefined--
150	0.150	0.00059	463.970	820.992	1325.636	1425.717	3128.688	493.712
151	0.151	0.00093	1251.223	791.613	3658.959	535.969	--undefined--	--undefined--
152	0.152	0.00099	649.947	863.005	3371.062	845.958	--undefined--	--undefined--
153	0.153	0.00099	525.197	1317.309	1180.782	1162.875	3610.668	1303.485
154	0.154	0.00124	1061.697	908.876	3664.040	502.413	--undefined--	--undefined--
155	0.155	0.00124	741.623	908.453	1897.582	1740.887	3718.670	622.219
156	0.156	0.00243	943.129	622.831	2000.226	833.043	3568.711	860.687
157	0.157	0.00243	658.108	989.492	2192.299	1223.181	3643.311	614.960
158	0.158	0.00455	561.590	1439.894	1295.749	2015.153	3704.343	734.308
159	0.159	0.00455	528.447	2076.150	1385.579	1098.647	3743.576	528.704
160	0.160	0.00326	531.273	1500.142	2420.081	1395.051	3832.259	588.556
161	0.161	0.01084	830.071	614.083	3811.935	428.476	--undefined--	--undefined--
162	0.162	0.01084	1187.013	605.859	2344.481	1514.188	3787.264	578.438
163	0.163	0.00584	1525.865	376.883	2580.658	6422.993	3994.900	459.206
164	0.164	0.01099	884.587	759.513	3829.428	417.577	--undefined--	--undefined--
165	0.165	0.01099	1205.344	496.544	2575.770	1400.801	3767.602	554.446
166	0.166	0.00672	1197.612	643.875	2156.325	1876.035	3873.512	582.889
167	0.167	0.01779	1004.807	658.685	2170.150	1082.698	3741.027	612.303
168	0.168	0.01779	1151.690	962.170	1818.232	2609.261	3678.926	551.387
169	0.169	0.00597	767.641	1007.915	1915.695	1185.267	3681.190	701.743
170	0.170	0.02245	833.225	900.755	1986.344	898.153	3556.138	625.027
171	0.171	0.02245	1045.020	970.142	2099.637	895.895	3610.152	787.418
172	0.172	0.03210	425.151	1316.507	1601.445	1154.947	3769.669	541.343
173	0.173	0.03210	1026.067	939.118	1809.158	1028.108	3734.408	500.627
174	0.174	0.01390	1405.541	436.609	2331.590	599.428	3663.320	1440.057
175	0.175	0.03770	1882.318	610.420	3756.175	348.722	--undefined--	--undefined--
176	0.176	0.03770	1244.773	691.630	1963.968	1322.044	3801.082	486.213
177	0.177	0.01438	1195.575	941.176	2145.662	1089.298	3332.766	2257.271
178	0.178	0.03781	698.895	791.484	1703.879	743.430	3550.835	393.873
179	0.179	0.03781	1266.625	562.037	2427.179	986.954	3754.815	564.050
180	0.180	0.01168	1097.313	702.435	1983.831	1090.949	3640.567	656.835
181	0.181	0.02737	1018.740	477.806	1867.584	2351.061	3494.889	428.609
182	0.182	0.02737	1087.861	959.340	2566.537	1091.946	3735.178	628.285
183	0.183	0.00570	1192.491	1310.456	3612.262	478.351	--undefined--	--undefined--
184	0.184	0.02163	870.398	786.709	2281.735	1002.421	3553.459	616.693
185	0.185	0.02163	806.846	1115.977	2777.084	2016.186	3611.976	699.499
186	0.186	0.01034	2390.092	892.419	3627.027	510.404	--undefined--	--undefined--
187	0.187	0.03778	901.511	1009.390	2293.203	992.972	3616.624	627.583
188	0.188	0.03778	2143.704	1715.408	3296.960	472.027	--undefined--	--undefined--
189	0.189	0.04473	458.284	1019.048	2264.413	830.937	3464.413	541.666
190	0.190	0.04473	1145.363	877.873	2375.859	1255.352	3714.735	641.310
191	0.191	0.01870	812.653	2605.997	1921.926	1374.162	3308.509	720.687
192	0.192	0.05811	613.052	786.068	2000.862	710.799	3282.600	434.219
193	0.193	0.05811	1307.745	520.786	2625.526	2122.704	3752.811	579.680
194	0.194	0.01389	1179.526	903.541	2373.689	932.960	3536.996	705.429
195	0.195	0.05760	560.603	978.364	2102.472	694.883	3456.630	457.942
196	0.196	0.05760	1382.007	596.650	2389.032	2130.897	3773.213	553.388
197	0.197	0.02487	1279.145	650.634	2404.758	730.819	3590.510	635.756
198	0.198	0.08298	1953.742	544.808	3644.225	377.681	--undefined--	--undefined--
199	0.199	0.08298	1410.759	547.301	2519.793	994.882	3760.136	571.824
200	0.200	0.01787	1284.266	962.718	2337.889	746.423	3537.390	624.285
201	0.201	0.07109	1342.916	871.132	1939.118	1737.686	3663.808	410.497
202	0.202	0.07109	1515.064	571.349	2559.369	731.480	3680.240	566.196
203	0.203	0.01929	1508.987	875.964	2356.765	736.451	3516.678	555.533
204	0.204	0.07457	1167.889	678.678	2273.939	1407.522	3605.887	501.240
205	0.205	0.07457	1604.220	394.147	2595.331	520.746	3619.538	460.982
206	0.206	0.02183	1032.606	1247.964	2212.131	710.425	3460.367	542.738
207	0.207	0.07088	1007.077	873.912	2408.219	1065.325	3585.058	579.039
208	0.208	0.07088	1344.369	799.273	2445.880	643.833	3485.377	449.822
209	0.209	0.01575	741.215	1113.440	2146.984	828.237	3484.853	482.069
210	0.210	0.06602	1003.146	1027.448	2433.298	854.342	3599.136	565.730
211	0.211	0.06602	1026.986	901.716	2364.757	722.143	3453.866	393.127
212	0.212	0.05469	509.531	1099.289	2090.786	1206.294	3514.609	340.386
213	0.213	0.05469	1114.208	1027.450	2475.829	798.091	3621.803	545.898
214	0.214	0.02019	916.095	849.218	2353.241	1168.455	3484.075	364.962
215	0.215	0.04948	394.699	675.137	2595.852	1139.311	3598.943	346.527
216	0.216	0.04948	1270.670	903.843	2680.227	833.831	3742.372	563.513
217	0.217	0.02041	951.962	806.084	2507.826	1913.345	3481.171	383.425
218	0.218	0.04509	343.428	923.959	2569.122	704.393	3587.433	434.544
219	0.219	0.04509	1375.196	672.198	2964.788	809.915	3872.638	637.384
220	0.220	0.01705	1099.086	1119.861	2628.561	1297.016	3551.821	605.292
221	0.221	0.05967	520.603	1193.032	2476.297	1073.121	3442.643	782.422
222	0.222	0.05967	1414.435	591.436	3219.312	474.335	4059.394	604.493
223	0.223	0.01317	1619.454	1516.192	2613.050	912.941	3641.779	637.017
224	0.224	0.05661	673.469	1302.504	2632.046	987.644	3318.539	1187.431
225	0.225	0.05661	1722.295	969.713	3148.887	785.743	3972.394	747.602
226	0.226	0.01267	1796.047	1271.833	2644.981	897.630	3690.535	674.343
227	0.227	0.05699	767.293	1201.019	2745.242	580.568	3324.940	1479.696
228	0.228	0.05699	1748.223	1197.333	2817.942	990.152	3811.320	676.815
229	0.229	0.01824	1314.648	1165.781	2551.178	784.199	3664.025	611.135
230	0.230	0.04788	986.077	1345.872	2726.896	618.845	3458.829	1864.445
231	0.231	0.04788	1522.930	936.372	2689.989	736.764	3739.967	556.539
232	0.232	0.01977	1007.396	1188.973	2450.954	875.639	3661.029	568.692
233	0.233	0.03626	1097.153	1557.312	2615.671	1038.302	3365.986	2341.521
234	0.234	0.03626	1381.986	659.513	2561.221	659.141	3653.002	490.240
235	0.235	0.00985	728.214	1473.280	2250.943	1115.520	3716.723	567.879
236	0.236	0.02862	949.344	1320.574	2346.627	990.659	3593.179	1018.134
237	0.237	0.02862	1229.694	664.957	2402.360	704.114	3553.053	440.823
238	0.238	0.03473	1950.093	1228.134	3816.341	549.899	--undefined--	--undefined--
239	0.239	0.03473	897.700	1235.201	2280.383	947.808	3610.710	776.919
240	0.240	0.01916	1011.792	841.140	2160.240	746.747	3508.090	346.586
241	0.241	0.04061	2046.091	1010.629	3866.252	616.103	--undefined--	--undefined--
242	0.242	0.04061	857.267	1264.274	2238.304	923.923	3654.479	630.833
243	0.243	0.01347	594.898	1815.587	1892.846	778.472	3606.568	287.880
244	0.244	0.03248	324.103	1451.201	2225.352	979.950	3687.678	708.413
245	0.245	0.03248	420.918	2003.463	2038.287	904.807	3772.643	423.477
246	0.246	0.01354	2192.752	678.813	3605.340	428.818	--undefined--	--undefined--
247	0.247	0.02231	600.580	1024.144	2267.463	729.710	3507.675	624.589
248	0.248	0.02231	2028.401	549.692	3787.499	392.557	--undefined--	--undefined--
249	0.249	0.01065	852.683	2514.332	2329.319	862.581	3640.709	656.386
250	0.250	0.02569	359.396	1554.097	2456.921	830.722	3388.482	1400.823
251	0.251	0.02569	994.999	1839.127	2303.899	946.145	3710.485	665.468
252	0.252	0.00961	1337.025	1080.716	2512.955	912.419	3704.445	748.773
253	0.253	0.01476	1824.737	2815.597	2660.830	499.579	--undefined--	--undefined--
254	0.254	0.01476	1350.846	1038.599	2549.665	1074.533	3673.803	979.187
255	0.255	0.00657	1369.997	758.353	2581.736	854.724	3788.418	685.497
256	0.256	0.00979	967.382	1080.548	2547.833	782.979	3690.500	1384.904
257	0.257	0.00979	1375.805	846.536	2475.297	854.311	3530.242	679.029
258	0.258	0.00458	1027.396	1422.865	2173.661	1293.167	3847.468	622.743
259	0.259	0.00423	1172.112	840.060	2567.648	970.351	3848.009	1080.158
260	0.260	0.00423	2173.278	635.370	3393.368	421.246	--undefined--	--undefined--
261	0.261	0.00120	463.256	1391.291	1864.713	827.373	3964.796	525.699
262	0.262	0.00120	1092.289	788.247	2305.777	904.222	3722.579	908.040
263	0.263	0.00108	1339.151	1761.998	3560.863	726.661	--undefined--	--undefined--
264	0.264	0.00118	651.161	843.113	3284.834	705.662	--undefined--	--undefined--
265	0.265	0.00118	815.947	926.550	2332.782	709.131	--undefined--	--undefined--
266	0.266	0.00061	448.379	624.848	1543.637	945.388	3513.303	377.649
267	0.267	0.00085	921.497	824.003	3562.166	551.658	--undefined--	--undefined--
268	0.268	0.00085	705.103	706.133	1259.260	3601.922	3229.680	518.351
269	0.269	0.00049	875.081	863.557	3092.188	906.080	--undefined--	--undefined--
270	0.270	0.00063	639.518	846.323	3406.185	491.081	--undefined--	--undefined--
271	0.271	0.00063	1025.164	620.142	3492.952	600.785	--undefined--	--undefined--
272	0.272	0.00039	712.562	623.742	2924.623	742.449	--undefined--	--undefined--
273	0.273	0.00048	875.093	897.592	2747.181	975.096	--undefined--	--undefined--
274	0.274	0.00048	845.992	1409.889	1208.101	1351.511	4821.040	2030.666
