frame	time(s)	intensity	F1(Hz)	B1(Hz)	F2(Hz)	B2(Hz)	F3(Hz)	B3(Hz)
1	0.001	0.00001	1358.752	509.528	2248.800	501.686	--undefined--	--undefined--
2	0.002	0.000002	1721.560	463.662	2657.959	475.754	--undefined--	--undefined--
3	0.003	0.000004	1013.314	838.639	1935.504	1000.554	4989.975	801.273
4	0.004	0.00001	1190.140	594.432	2090.975	382.821	4629.366	648.138
5	0.005	0.00001	1750.283	438.929	3696.578	1660.218	--undefined--	--undefined--
6	0.006	0.00001	1100.388	823.633	2126.190	557.163	--undefined--	--undefined--
7	0.007	0.00002	1852.415	436.932	3649.727	2066.407	--undefined--	--undefined--
8	0.008	0.00002	869.633	1857.461	1926.462	908.487	4732.901	2484.850
9	0.009	0.00002	1215.705	779.535	2258.097	898.658	4370.038	1748.720
10	0.010	0.00002	865.059	1555.202	2473.192	1406.492	--undefined--	--undefined--
11	0.011	0.00016	923.208	996.935	1864.692	717.145	--undefined--	--undefined--
12	0.012	0.00016	1375.283	1321.759	2234.532	753.879	--undefined--	--undefined--
13	0.013	0.00007	773.930	1919.354	2354.998	628.233	--undefined--	--undefined--
14	0.014	0.00089	772.178	928.932	1766.627	880.547	2867.487	805.626
15	0.015	0.00089	1097.691	1028.740	2575.721	791.217	--undefined--	--undefined--
16	0.016	0.00022	1273.871	1309.670	2578.845	781.146	--undefined--	--undefined--
17	0.017	0.00029	1156.426	589.336	2467.867	1050.571	--undefined--	--undefined--
18	0.018	0.00036	1190.803	788.107	2352.236	821.319	--undefined--	--undefined--
19	0.019	0.00036	584.115	764.515	1605.315	932.804	--undefined--	--undefined--
20	0.020	0.00018	1348.239	642.126	2202.024	941.393	5025.310	3766.883
21	0.021	0.00289	1061.085	854.061	2223.127	1191.274	--undefined--	--undefined--
22	0.022	0.00289	599.523	556.508	2115.586	686.134	4103.972	1495.112
23	0.023	0.00112	837.291	717.200	1811.256	956.082	--undefined--	--undefined--
24	0.024	0.00537	1164.588	498.975	2220.052	426.742	--undefined--	--undefined--
25	0.025	0.00537	984.942	520.650	1961.772	661.868	3222.260	690.777
26	0.026	0.00241	1289.170	1034.955	3212.184	1775.145	--undefined--	--undefined--
27	0.027	0.00101	1342.358	482.530	2640.630	1147.792	--undefined--	--undefined--
28	0.028	0.01042	1378.076	836.971	2643.270	731.661	--undefined--	--undefined--
29	0.029	0.01042	900.116	1038.287	2035.244	1032.799	3238.394	929.231
30	0.030	0.00364	1127.054	1047.196	2933.625	1036.450	--undefined--	--undefined--
31	0.031	0.01113	718.803	616.246	2705.009	490.150	--undefined--	--undefined--
32	0.032	0.01113	1688.299	1081.959	3589.200	1006.087	--undefined--	--undefined--
33	0.033	0.00402	613.095	554.242	2308.117	1143.580	3652.771	1182.973
34	0.034	0.02188	1061.494	543.590	2448.322	1021.317	3840.828	990.408
35	0.035	0.02188	1438.406	1007.483	2653.851	930.122	--undefined--	--undefined--
36	0.036	0.00872	1564.427	1037.631	2709.002	620.092	--undefined--	--undefined--
37	0.037	0.00647	1746.480	975.111	2790.868	731.420	--undefined--	--undefined--
38	0.038	0.02695	1083.849	1329.514	2247.096	1269.246	3647.753	1405.575
39	0.039	0.02695	1175.526	987.668	2199.309	1279.369	3311.130	1210.451
40	0.040	0.00943	1412.570	1609.551	1438.965	3758.007	2683.746	1932.212
41	0.041	0.02996	1338.436	743.437	2234.414	1713.745	--undefined--	--undefined--
42	0.042	0.02996	410.223	2369.002	1716.693	637.521	3797.232	570.667
43	0.043	0.01492	1167.092	987.732	1889.443	1021.756	4441.311	1502.512
44	0.044	0.07966	1536.897	627.818	2323.527	739.310	--undefined--	--undefined--
45	0.045	0.07966	1732.058	373.329	2764.396	508.179	--undefined--	--undefined--
46	0.046	0.02409	2113.786	817.237	3433.800	1066.105	--undefined--	--undefined--
47	0.047	0.11236	1743.582	630.893	2696.134	587.939	--undefined--	--undefined--
48	0.048	0.11236	1640.894	585.985	2739.697	632.297	--undefined--	--undefined--
49	0.049	0.03850	1987.721	442.204	2886.366	490.568	--undefined--	--undefined--
50	0.050	0.09071	1978.864	600.367	2942.615	604.084	--undefined--	--undefined--
51	0.051	0.09071	1388.536	1179.070	2469.429	1164.182	3736.981	1493.112
52	0.052	0.03512	1758.699	618.549	2802.975	518.017	--undefined--	--undefined--
53	0.053	0.02306	2177.675	539.952	3273.088	699.734	--undefined--	--undefined--
54	0.054	0.14629	1378.756	1547.020	2478.010	1596.578	3828.053	2047.670
55	0.055	0.14629	1593.306	744.394	2742.487	700.005	--undefined--	--undefined--
56	0.056	0.01473	1266.587	1488.262	2322.618	610.040	3450.223	511.579
57	0.057	0.13898	1505.588	1711.968	2760.285	1996.057	--undefined--	--undefined--
58	0.058	0.13898	1606.298	706.016	2741.676	574.949	--undefined--	--undefined--
59	0.059	0.01497	1958.113	643.643	3110.960	775.492	--undefined--	--undefined--
60	0.060	0.11190	1424.394	1664.682	2592.036	1742.497	4509.340	3334.595
61	0.061	0.11190	1664.359	1206.557	2600.615	819.529	--undefined--	--undefined--
62	0.062	0.05526	1848.314	513.895	2986.944	843.744	4347.407	2184.131
63	0.063	0.05526	1357.260	1834.627	2432.335	1441.617	3712.713	1785.751
64	0.064	0.03915	2156.015	525.147	3144.802	549.971	--undefined--	--undefined--
65	0.065	0.07362	1574.412	523.501	2570.148	569.902	3669.872	503.698
66	0.066	0.07362	1934.981	1400.464	3008.449	1544.498	--undefined--	--undefined--
67	0.067	0.01595	2084.018	544.776	3078.102	806.646	--undefined--	--undefined--
68	0.068	0.03589	1601.099	699.006	2673.589	861.024	3888.012	969.873
69	0.069	0.03589	1877.853	854.115	2958.931	825.130	--undefined--	--undefined--
70	0.070	0.02116	2083.674	661.518	3088.460	847.584	--undefined--	--undefined--
71	0.071	0.02566	1563.958	661.172	2577.429	674.512	3720.954	660.022
72	0.072	0.02566	2158.926	678.068	3265.821	712.240	--undefined--	--undefined--
73	0.073	0.00940	1895.717	761.023	2864.082	648.201	--undefined--	--undefined--
74	0.074	0.01169	1581.142	547.552	2543.507	603.924	3667.689	628.909
75	0.075	0.01169	2129.074	728.763	3206.237	698.063	--undefined--	--undefined--
76	0.076	0.00630	774.974	1374.646	2311.213	586.936	3997.426	1967.813
77	0.077	0.00318	1729.720	528.550	2793.374	590.354	3819.552	462.539
78	0.078	0.00225	800.696	741.108	2999.908	1571.906	3984.670	1215.904
79	0.079	0.00244	708.925	1643.229	3317.149	1438.695	--undefined--	--undefined--
80	0.080	0.00244	2200.714	1176.958	3695.400	1273.870	--undefined--	--undefined--
81	0.081	0.00129	1235.262	954.602	2317.214	759.949	--undefined--	--undefined--
82	0.082	0.00129	1189.480	748.510	2504.398	1059.717	3871.119	862.510
83	0.083	0.00086	2155.217	763.371	3914.254	442.691	--undefined--	--undefined--
84	0.084	0.00072	2162.325	1279.138	3252.333	1679.735	--undefined--	--undefined--
85	0.085	0.00072	1974.879	1342.541	3794.133	865.170	--undefined--	--undefined--
86	0.086	0.00054	1151.863	1275.317	2213.829	1036.374	--undefined--	--undefined--
87	0.087	0.00018	948.416	1216.224	3440.551	639.942	--undefined--	--undefined--
88	0.088	0.00061	1577.331	1337.830	2799.421	928.857	4113.315	1502.878
89	0.089	0.00061	1719.598	774.837	2554.640	809.348	4277.505	506.666
90	0.090	0.00043	816.252	1454.157	3476.652	898.399	--undefined--	--undefined--
91	0.091	0.00046	2154.952	1399.461	3045.041	2657.249	4705.514	1221.272
92	0.092	0.00188	1923.443	777.494	3023.747	1108.390	4915.281	1063.863
93	0.093	0.00188	2151.135	785.061	3245.520	567.646	4158.970	453.157
94	0.094	0.00113	1723.854	954.788	2928.363	811.782	3918.058	462.668
95	0.095	0.00381	1972.880	859.242	3006.854	575.107	--undefined--	--undefined--
96	0.096	0.00541	2257.182	1090.209	3335.568	754.997	4257.121	794.114
97	0.097	0.00541	2280.523	463.675	3203.665	516.163	4098.857	645.990
98	0.098	0.00573	2091.365	421.135	2964.622	408.541	--undefined--	--undefined--
99	0.099	0.00826	2475.731	560.000	3372.688	551.621	4242.985	496.939
100	0.100	0.00826	2439.067	581.040	3445.962	649.393	4420.959	877.335
101	0.101	0.02318	2111.237	540.761	3175.853	595.200	4282.909	622.729
102	0.102	0.02372	1844.488	1001.313	3520.532	332.423	4323.864	364.921
103	0.103	0.02372	2358.445	400.512	3327.528	438.838	4382.750	1635.480
104	0.104	0.00982	2059.219	744.748	4109.922	715.591	4823.839	1556.712
105	0.105	0.01237	2097.647	609.292	3852.550	1203.337	4323.526	747.152
106	0.106	0.01237	2344.614	306.692	3246.888	325.464	4774.588	1915.274
107	0.107	0.00815	2127.677	525.577	3625.087	826.528	4561.070	752.132
108	0.108	0.00864	2488.742	799.135	3471.247	625.148	4319.438	586.575
109	0.109	0.00864	2291.297	628.793	3247.631	535.036	4173.721	472.984
110	0.110	0.00661	2171.540	570.541	3238.051	478.246	--undefined--	--undefined--
111	0.111	0.01028	1736.761	2258.494	2911.621	450.807	5044.095	663.602
112	0.112	0.01028	3223.807	765.653	3442.640	3916.605	4237.944	931.924
113	0.113	0.00420	2124.425	613.809	3137.068	762.824	4971.539	817.375
114	0.114	0.00359	2379.487	1282.829	3408.109	1013.918	4265.798	1314.912
115	0.115	0.00403	2317.188	588.796	3458.452	729.193	4846.879	821.671
116	0.116	0.00403	2041.281	703.116	3184.365	620.529	4511.503	2046.962
117	0.117	0.01160	1807.120	776.507	4134.882	524.072	5067.875	423.797
118	0.118	0.01668	2356.723	391.610	3329.367	426.631	4426.887	1734.111
119	0.119	0.01668	1991.890	683.568	3800.804	1851.635	4236.240	634.465
120	0.120	0.01497	2058.458	636.476	3353.451	737.925	4109.754	1092.972
121	0.121	0.02386	2486.905	381.153	3485.415	453.885	4565.992	700.093
122	0.122	0.02386	2189.474	469.312	3224.528	667.602	4505.508	457.870
123	0.123	0.01590	2235.360	629.294	3273.450	479.079	4136.109	417.935
124	0.124	0.01590	2717.687	456.198	3638.073	604.806	4525.318	1097.494
125	0.125	0.02157	2282.466	386.370	3379.527	961.833	4801.552	720.977
126	0.126	0.02157	2268.175	464.984	3235.919	533.612	4351.848	541.762
127	0.127	0.01143	2567.257	426.945	3451.108	413.454	4847.453	1627.519
128	0.128	0.02286	2669.892	725.674	3558.839	684.058	4426.060	881.990
129	0.129	0.02286	2483.391	423.872	3619.044	458.741	4632.684	586.120
130	0.130	0.03231	2610.280	913.236	3563.488	758.093	4531.766	1009.652
131	0.131	0.03391	2412.074	744.600	3487.140	489.927	4358.719	513.739
132	0.132	0.03391	2102.046	485.138	3466.779	724.865	4429.096	644.150
133	0.133	0.01270	2098.847	454.101	3248.371	616.167	4403.762	673.693
134	0.134	0.02668	1676.310	573.491	3146.958	1781.820	4287.853	473.325
135	0.135	0.04133	2236.738	562.323	3468.530	521.489	4436.393	908.370
136	0.136	0.05446	2518.887	510.493	3430.320	427.245	4264.419	451.968
137	0.137	0.08303	2713.289	657.423	3639.692	626.577	4595.130	860.843
138	0.138	0.08303	2395.867	564.383	3255.580	425.904	4058.119	334.738
139	0.139	0.05044	2480.345	1249.243	3614.528	682.696	4500.165	822.127
140	0.140	0.05044	2543.737	443.626	3439.474	485.724	4350.114	640.640
141	0.141	0.03057	3039.088	828.072	3863.634	1258.092	4665.337	2702.441
142	0.142	0.02715	2485.503	635.888	3599.202	485.129	4461.786	474.057
143	0.143	0.02315	1988.151	1194.066	3399.356	347.151	--undefined--	--undefined--
144	0.144	0.02315	2033.001	993.110	3723.956	390.796	4789.499	634.307
145	0.145	0.02697	1985.987	850.030	3501.734	286.464	--undefined--	--undefined--
146	0.146	0.05450	2086.770	1930.415	3692.288	549.172	4831.244	788.838
147	0.147	0.05450	2303.938	915.726	3577.721	675.960	4592.186	962.443
148	0.148	0.04216	2383.121	533.762	3545.823	520.393	4500.546	580.189
149	0.149	0.04216	2494.043	400.495	3417.582	409.721	4305.947	436.249
150	0.150	0.03984	2268.957	552.163	3544.285	699.746	4823.483	845.305
151	0.151	0.03984	2194.762	936.095	3648.687	474.759	4986.953	1340.248
152	0.152	0.03367	1976.477	443.643	2982.686	651.732	4413.906	929.199
153	0.153	0.03367	2647.496	1090.237	3547.160	828.941	4494.171	1056.770
154	0.154	0.01694	2552.504	325.474	3474.388	383.881	4384.136	482.422
155	0.155	0.01530	1941.553	1260.653	3657.709	438.714	4692.365	650.605
156	0.156	0.01286	2385.943	423.136	3406.153	494.308	4426.296	480.809
157	0.157	0.03230	2438.764	636.045	3425.427	590.763	4726.466	988.868
158	0.158	0.03230	2463.107	571.334	3394.887	410.000	4166.789	374.239
159	0.159	0.02900	2329.431	382.743	3256.778	410.362	4128.476	429.461
160	0.160	0.06462	2304.146	1053.972	3652.355	540.795	4772.689	758.554
161	0.161	0.06462	2314.935	437.022	3379.151	495.211	4316.551	471.062
162	0.162	0.02452	2897.289	1497.367	3259.540	1063.760	4224.053	666.553
163	0.163	0.02170	2547.283	998.202	3490.750	782.749	4448.140	952.718
164	0.164	0.02170	1960.909	1753.426	3310.632	535.071	4204.192	623.426
165	0.165	0.02634	2077.731	518.201	3548.129	592.988	4387.612	494.826
166	0.166	0.02634	2046.990	571.086	3239.342	490.017	4104.942	2001.843
167	0.167	0.02079	2485.216	2470.132	3297.038	532.400	4197.187	518.281
168	0.168	0.02286	2218.906	1168.488	3362.740	455.954	4221.864	542.116
169	0.169	0.02286	2214.753	634.482	3390.252	595.200	4358.576	520.065
170	0.170	0.06596	2352.106	450.889	3350.103	429.284	4240.023	414.235
171	0.171	0.06596	2143.071	887.451	3568.559	471.483	4424.852	519.023
172	0.172	0.04023	2161.279	503.335	3385.995	625.944	4987.973	983.514
173	0.173	0.02348	2366.500	385.690	3308.880	429.667	4310.674	1349.891
174	0.174	0.02793	2377.269	1787.252	3454.900	863.682	4980.384	1496.258
175	0.175	0.03346	2079.005	718.345	3678.298	507.110	4789.269	841.737
176	0.176	0.03346	2352.190	708.404	3804.829	324.275	4778.992	504.847
177	0.177	0.02630	2039.922	1295.490	3583.256	624.696	4469.167	647.869
178	0.178	0.02142	2092.086	487.432	3013.152	448.145	5052.517	1452.649
179	0.179	0.06065	3148.724	4649.070	3164.609	893.325	4161.007	826.333
180	0.180	0.06065	2275.234	713.424	3231.691	1310.005	4511.865	437.247
181	0.181	0.02446	1822.360	920.496	2707.486	768.868	4348.310	266.080
182	0.182	0.01879	2061.460	1838.289	3259.405	642.318	4150.229	508.876
183	0.183	0.05389	2679.188	915.608	3641.842	492.676	--undefined--	--undefined--
184	0.184	0.05389	2205.579	617.203	3241.849	512.007	4121.919	441.679
185	0.185	0.02843	2239.759	613.292	3326.274	589.268	4352.353	639.196
186	0.186	0.02274	2213.626	556.661	3407.721	698.143	4341.361	890.299
187	0.187	0.02607	2050.407	1641.509	3475.277	701.977	4362.737	1760.849
188	0.188	0.02607	1909.357	545.414	3659.735	751.370	--undefined--	--undefined--
189	0.189	0.03806	2645.188	683.486	3493.622	789.897	--undefined--	--undefined--
190	0.190	0.04479	2359.326	594.414	3286.844	489.523	4102.468	382.756
191	0.191	0.04479	2324.412	609.387	3251.436	512.486	4105.171	524.809
192	0.192	0.04338	2204.079	692.363	3238.278	760.968	4685.925	856.061
193	0.193	0.05217	2163.942	437.091	3385.707	1110.177	4633.709	753.791
194	0.194	0.06374	2219.015	997.655	3106.070	1859.127	4137.685	392.403
195	0.195	0.06374	2351.514	542.093	3336.359	696.647	4858.910	1203.202
196	0.196	0.06242	2075.128	723.148	2809.105	1736.151	4605.059	1223.213
197	0.197	0.06242	1750.956	648.296	3764.249	413.029	4779.479	720.005
198	0.198	0.04530	2476.651	518.615	3790.538	552.882	4753.117	621.269
199	0.199	0.04530	2545.675	825.972	2750.785	3462.338	4284.541	604.024
200	0.200	0.06879	2228.909	828.742	3283.680	619.876	4156.685	499.474
201	0.201	0.06879	2231.973	1191.450	3503.657	428.534	4352.169	399.032
202	0.202	0.02586	2196.771	1275.309	3671.178	599.215	4860.163	656.737
203	0.203	0.03646	2358.258	452.707	3502.265	481.680	4455.005	503.258
204	0.204	0.03694	2160.712	542.860	3373.139	639.070	4507.611	844.835
205	0.205	0.03694	2985.829	868.835	3959.415	1034.176	--undefined--	--undefined--
206	0.206	0.02881	1922.778	438.268	3960.391	867.712	4836.979	978.063
207	0.207	0.02881	1365.399	682.482	3645.687	859.549	4345.138	849.112
208	0.208	0.00779	2678.912	824.571	4191.449	843.774	--undefined--	--undefined--
209	0.209	0.01716	2402.896	644.614	3594.788	738.275	4888.335	914.757
210	0.210	0.01716	2467.320	716.136	3671.743	681.518	4621.877	842.370
211	0.211	0.00884	1587.472	730.194	3613.927	904.492	4448.776	717.887
212	0.212	0.02614	1730.631	1314.914	3635.809	835.364	4915.482	789.564
213	0.213	0.02614	2443.020	641.996	3490.890	580.751	4382.887	536.400
214	0.214	0.01903	1933.160	619.495	3240.789	1108.062	4494.879	451.559
215	0.215	0.02383	2271.920	1040.808	2903.431	667.776	4686.238	482.123
216	0.216	0.04542	2363.586	435.849	3544.645	716.271	4584.152	624.270
217	0.217	0.04542	2503.257	1360.513	2881.800	1104.320	4544.895	460.450
218	0.218	0.01339	1989.513	2675.482	3039.851	685.847	5203.426	2207.195
219	0.219	0.01026	1794.072	911.081	3162.309	688.894	4283.488	1421.633
220	0.220	0.01026	1390.647	1173.928	3354.547	718.520	4349.386	721.246
221	0.221	0.00295	2115.962	711.042	3150.654	1706.398	4757.081	511.403
222	0.222	0.00189	1909.192	1306.142	3007.436	999.147	4479.571	2313.859
223	0.223	0.00684	2403.187	564.888	3405.707	602.293	--undefined--	--undefined--
224	0.224	0.00684	2934.219	825.632	4069.486	1210.738	--undefined--	--undefined--
225	0.225	0.00229	2153.876	589.486	3178.959	736.769	4574.050	962.881
226	0.226	0.00208	1987.995	4003.251	2953.637	704.463	5207.722	1660.548
227	0.227	0.00208	2037.957	1029.288	3430.239	1072.869	4341.978	938.302
228	0.228	0.00149	1367.977	1896.001	3253.958	953.770	4332.698	1132.702
229	0.229	0.00149	1375.834	970.173	2415.234	680.827	4196.612	337.719
230	0.230	0.00082	2034.881	2055.137	3255.857	1186.168	4373.729	1527.244
231	0.231	0.00294	1796.154	955.417	2821.308	641.884	3842.471	504.665
232	0.232	0.00294	2681.085	656.426	3710.244	759.460	--undefined--	--undefined--
233	0.233	0.00106	2966.885	901.161	4218.406	742.196	--undefined--	--undefined--
234	0.234	0.00106	2428.855	1466.013	4043.722	677.891	--undefined--	--undefined--
235	0.235	0.00099	1334.773	1615.593	3383.199	875.306	4278.231	1259.453
236	0.236	0.00257	2161.767	1714.774	3204.209	1297.149	3851.893	1806.534
237	0.237	0.00257	1949.606	1055.849	3006.521	803.943	4701.877	1555.163
238	0.238	0.00227	2033.755	926.209	3253.168	934.457	4480.237	1402.863
239	0.239	0.00079	1991.982	1456.731	2900.347	1196.571	4204.231	1199.326
240	0.240	0.00126	322.516	2003.851	2645.237	438.309	4532.989	1044.329
241	0.241	0.00126	1201.858	6875.409	1232.967	766.450	4196.278	586.453
242	0.242	0.00083	1044.490	873.109	3147.510	408.455	4085.487	445.867
243	0.243	0.00051	616.168	456.215	3123.029	660.674	3964.355	496.211
244	0.244	0.00378	657.357	389.802	3513.664	532.803	4511.571	1299.435
245	0.245	0.00378	799.237	731.582	3723.265	604.549	3801.518	7471.561
246	0.246	0.00162	1262.091	1868.965	2786.430	780.328	3832.338	499.284
247	0.247	0.01507	1234.823	1097.310	3299.774	1935.906	4586.436	2185.300
248	0.248	0.01507	677.564	588.227	3247.223	959.404	4145.005	1690.379
249	0.249	0.00507	1027.947	1181.930	3276.995	948.561	--undefined--	--undefined--
250	0.250	0.00507	562.410	513.732	2534.275	2072.215	5183.170	1512.644
251	0.251	0.00323	999.207	913.396	3716.742	510.280	--undefined--	--undefined--
252	0.252	0.00440	672.368	622.112	3672.828	1283.208	--undefined--	--undefined--
253	0.253	0.00598	948.677	770.129	2176.573	2379.440	3640.419	624.283
254	0.254	0.00598	1148.911	783.766	2706.525	2061.790	3768.884	903.140
255	0.255	0.00759	1115.204	1223.012	3056.721	1476.093	4910.863	1786.231
256	0.256	0.00759	802.663	833.689	3327.921	597.128	--undefined--	--undefined--
257	0.257	0.00723	1223.789	1018.895	3659.562	702.817	--undefined--	--undefined--
258	0.258	0.00690	536.078	573.903	2706.588	1680.415	--undefined--	--undefined--
259	0.259	0.00690	1037.683	1511.087	1790.216	1437.443	4655.647	1147.211
260	0.260	0.00877	618.704	1364.513	2704.047	707.987	--undefined--	--undefined--
261	0.261	0.00877	1152.015	781.387	2635.305	1416.525	4911.771	1704.207
262	0.262	0.01608	1016.692	686.960	3120.689	760.121	--undefined--	--undefined--
263	0.263	0.01608	777.339	1491.548	3014.212	2624.785	4837.119	1653.699
264	0.264	0.00813	1044.101	954.203	3247.137	675.558	--undefined--	--undefined--
265	0.265	0.03074	512.457	1012.479	2135.795	1097.397	4103.640	534.038
266	0.266	0.03074	1748.885	1203.551	3868.142	1866.352	--undefined--	--undefined--
267	0.267	0.01035	1180.713	793.624	2222.520	722.251	3587.673	1814.057
268	0.268	0.01117	1193.437	901.885	2662.402	2908.453	4465.382	1335.113
269	0.269	0.01117	664.048	784.864	2407.698	1139.907	3545.570	672.998
270	0.270	0.04538	457.727	890.761	2849.130	995.270	4992.195	1011.249
271	0.271	0.04538	2698.935	551.653	5146.552	1278.465	--undefined--	--undefined--
272	0.272	0.01767	1176.733	769.001	2425.136	714.066	3761.683	829.963
273	0.273	0.03619	1232.162	732.758	2670.469	1685.458	4214.521	962.835
274	0.274	0.03619	1125.289	1541.052	3407.612	726.097	--undefined--	--undefined--
