frame	time(s)	intensity	F1(Hz)	B1(Hz)	F2(Hz)	B2(Hz)	F3(Hz)	B3(Hz)
1	0.001	0.0000006	1361.407	791.508	2777.420	1579.926	4912.273	1190.375
2	0.002	0.0000006	987.207	1280.028	2726.213	928.561	5146.554	1081.510
3	0.003	0.0000006	1311.887	1096.612	2575.643	747.652	5033.020	581.633
4	0.004	0.0000006	1140.196	799.254	3222.026	1765.687	4905.141	645.551
5	0.005	0.0000006	1332.164	946.106	2293.494	1544.470	--undefined--	--undefined--
6	0.006	0.0000005	1380.003	524.862	1939.717	3509.201	4962.006	1179.816
7	0.007	0.000001	3337.806	687.206	4877.917	1401.292	--undefined--	--undefined--
8	0.008	0.000002	1326.659	665.221	4841.080	1221.087	--undefined--	--undefined--
9	0.009	0.000002	1417.749	956.479	2897.951	1246.752	4798.571	1417.996
10	0.010	0.000001	897.500	1115.626	1669.454	784.068	4546.333	515.261
11	0.011	0.000001	1044.919	1531.047	3039.884	468.096	--undefined--	--undefined--
12	0.012	0.0000007	676.700	2453.651	1624.575	1005.894	5079.738	3447.897
13	0.013	0.000001	1350.872	429.314	3535.654	740.459	4929.302	877.827
14	0.014	0.000002	1336.741	486.631	2427.916	607.249	--undefined--	--undefined--
15	0.015	0.000002	1134.201	934.337	3892.408	2010.507	4320.326	6365.538
16	0.016	0.000002	822.335	2801.280	1590.157	732.630	5041.311	495.184
17	0.017	0.000002	1640.655	770.252	2029.647	2031.711	4974.286	463.116
18	0.018	0.000003	737.822	2577.602	1484.625	1089.550	4626.304	1305.849
19	0.019	0.000005	1350.212	766.555	3379.795	1404.959	--undefined--	--undefined--
20	0.020	0.000007	879.874	591.028	1910.422	562.917	5081.092	693.310
21	0.021	0.000007	833.851	1887.696	4432.962	496.217	--undefined--	--undefined--
22	0.022	0.000006	585.749	1529.920	1692.372	1448.724	3793.526	3610.565
23	0.023	0.000006	1806.782	867.269	3022.308	897.364	--undefined--	--undefined--
24	0.024	0.00002	539.377	803.169	3463.029	2070.721	--undefined--	--undefined--
25	0.025	0.00003	472.009	563.979	1569.040	721.928	3918.335	678.852
26	0.026	0.00005	990.999	562.289	1841.575	578.876	--undefined--	--undefined--
27	0.027	0.00020	633.153	1461.728	--undefined--	--undefined--	--undefined--	--undefined--
28	0.028	0.00024	1121.086	673.603	3567.136	1894.180	--undefined--	--undefined--
29	0.029	0.00024	1136.981	781.704	2578.914	944.852	--undefined--	--undefined--
30	0.030	0.00009	1123.158	786.717	2779.459	2994.126	--undefined--	--undefined--
31	0.031	0.00039	815.068	487.354	2329.191	502.047	5279.809	1443.177
32	0.032	0.00039	1072.225	673.126	2055.838	1066.217	5075.683	1428.884
33	0.033	0.00042	849.484	1697.624	1392.727	1231.235	4102.082	1811.080
34	0.034	0.00343	1053.492	834.655	1883.666	1296.360	4110.580	1369.582
35	0.035	0.00343	1017.697	578.982	1949.204	783.885	3904.772	1639.384
36	0.036	0.00093	766.596	660.913	1749.613	513.846	3357.016	912.451
37	0.037	0.00217	987.382	609.802	2633.963	740.563	--undefined--	--undefined--
38	0.038	0.00217	746.601	747.688	1693.849	736.898	3446.052	776.160
39	0.039	0.00086	1143.046	478.916	3318.441	1031.489	--undefined--	--undefined--
40	0.040	0.00665	851.484	445.951	2960.906	549.182	--undefined--	--undefined--
41	0.041	0.00665	829.619	961.025	1865.165	1075.671	3619.438	955.709
42	0.042	0.00142	1253.595	484.805	3543.391	1263.714	--undefined--	--undefined--
43	0.043	0.00879	1135.778	604.974	3028.924	692.418	--undefined--	--undefined--
44	0.044	0.00879	817.059	1194.153	1870.559	1467.220	3650.137	1184.029
45	0.045	0.00276	1050.930	811.772	1590.307	1136.685	3693.035	479.073
46	0.046	0.01254	1196.342	461.247	2953.928	805.279	--undefined--	--undefined--
47	0.047	0.01254	1094.770	1811.749	1351.732	2778.265	3537.948	1866.246
48	0.048	0.00298	1281.214	553.549	4162.553	2276.069	--undefined--	--undefined--
49	0.049	0.01383	1200.745	487.406	3203.539	1212.098	--undefined--	--undefined--
50	0.050	0.01383	1015.752	1720.593	1883.342	3236.840	3699.850	2209.694
51	0.051	0.00417	998.220	639.227	1718.380	804.696	3769.513	492.439
52	0.052	0.02010	784.956	4553.996	1186.228	538.864	3837.564	857.629
53	0.053	0.02010	1004.298	1419.405	2140.680	1898.161	3884.474	1342.291
54	0.054	0.00383	1111.076	759.722	1841.216	1302.922	3888.894	1037.544
55	0.055	0.02246	1156.141	672.979	1898.671	2421.020	3951.492	990.125
56	0.056	0.02246	1331.964	886.048	2581.899	3082.001	4046.894	1884.984
57	0.057	0.00420	961.149	895.706	1936.872	970.245	3620.840	1075.835
58	0.058	0.02425	988.940	962.870	1929.376	1314.358	3932.018	995.761
59	0.059	0.02425	1480.060	588.036	4178.139	1703.423	--undefined--	--undefined--
60	0.060	0.01909	1421.956	811.619	2624.042	893.857	--undefined--	--undefined--
61	0.061	0.01909	893.969	1269.330	1823.268	1259.138	4039.468	1386.176
62	0.062	0.01602	1651.936	856.792	2999.752	1354.376	--undefined--	--undefined--
63	0.063	0.01750	247.802	1336.099	1926.170	666.585	3905.085	1481.434
64	0.064	0.01750	856.469	653.651	1723.917	529.420	4066.013	898.855
65	0.065	0.01375	1739.350	568.431	2976.436	713.334	--undefined--	--undefined--
66	0.066	0.01725	137.547	1068.031	2014.612	1009.897	--undefined--	--undefined--
67	0.067	0.01725	1103.416	700.508	2090.336	900.691	--undefined--	--undefined--
68	0.068	0.01535	1536.949	354.257	3348.496	1065.419	--undefined--	--undefined--
69	0.069	0.01319	844.462	1173.509	2108.213	1676.657	--undefined--	--undefined--
70	0.070	0.01319	985.941	2886.019	1335.650	862.490	4146.080	1624.934
71	0.071	0.00679	1511.230	578.860	2871.031	1048.585	4440.246	2294.712
72	0.072	0.01338	1086.178	1065.339	2159.703	1943.059	4054.440	1456.650
73	0.073	0.01338	1136.746	978.449	1935.669	1942.117	3692.733	1452.247
74	0.074	0.01197	1146.814	591.086	3388.736	796.047	--undefined--	--undefined--
75	0.075	0.01197	663.888	2596.521	1340.413	770.808	4003.413	907.071
76	0.076	0.01065	1327.237	720.517	3460.575	1205.651	--undefined--	--undefined--
77	0.077	0.01533	1077.016	778.333	5026.585	1644.574	--undefined--	--undefined--
78	0.078	0.01533	1217.568	1203.599	1488.671	2205.592	3083.470	2273.462
79	0.079	0.00752	978.138	918.707	1945.168	791.003	3246.643	606.502
80	0.080	0.01326	1041.668	692.655	2083.113	1153.994	3906.549	1102.412
81	0.081	0.01326	991.942	686.505	1861.710	896.858	3500.590	1211.928
82	0.082	0.01552	1200.021	665.440	3377.949	2926.167	--undefined--	--undefined--
83	0.083	0.01552	839.979	966.175	1600.216	784.691	3842.423	771.332
84	0.084	0.00852	994.665	1353.838	1415.047	806.726	3482.020	572.653
85	0.085	0.01088	1177.584	601.163	2849.451	1599.726	--undefined--	--undefined--
86	0.086	0.01088	954.961	1308.990	1598.133	988.579	5368.653	3547.325
87	0.087	0.00670	1305.044	736.669	2481.662	1271.711	--undefined--	--undefined--
88	0.088	0.01060	924.986	1061.401	1736.285	1170.963	3742.224	1087.253
89	0.089	0.01060	1252.203	745.663	2706.152	1282.108	--undefined--	--undefined--
90	0.090	0.00716	1376.830	582.363	2562.947	1343.873	--undefined--	--undefined--
91	0.091	0.00716	1035.881	618.321	1885.236	980.758	3371.457	1480.216
92	0.092	0.00464	1181.163	735.631	2485.940	1737.755	--undefined--	--undefined--
93	0.093	0.00532	1074.096	623.640	2120.501	1058.840	3797.917	975.744
94	0.094	0.00532	1158.042	639.321	2276.543	1198.202	--undefined--	--undefined--
95	0.095	0.00343	1668.061	697.765	3255.420	2046.844	--undefined--	--undefined--
96	0.096	0.00343	633.662	660.210	1604.450	556.979	3529.054	586.923
97	0.097	0.00260	754.283	572.527	1627.235	490.503	4443.833	1440.667
98	0.098	0.00137	953.705	950.172	2263.458	1580.842	3898.837	1308.112
99	0.099	0.00137	1011.761	829.428	1960.917	1080.765	3575.901	979.995
100	0.100	0.00047	1019.896	921.957	3547.861	1127.937	--undefined--	--undefined--
101	0.101	0.00079	477.253	1204.271	1360.966	780.269	3700.276	525.564
102	0.102	0.00079	1336.101	623.173	2996.071	858.968	5040.432	3977.059
103	0.103	0.00047	717.280	5832.993	752.079	1274.597	3346.368	838.420
104	0.104	0.00071	1232.823	547.766	1967.497	1038.283	4278.816	1591.899
105	0.105	0.00071	675.004	806.376	1696.379	550.710	3461.193	1608.916
106	0.106	0.00049	1128.404	690.974	2258.873	931.705	--undefined--	--undefined--
107	0.107	0.00049	443.337	1230.853	1271.904	713.817	3600.416	1107.594
108	0.108	0.00042	1367.093	966.774	3662.265	2687.217	--undefined--	--undefined--
109	0.109	0.00060	1842.237	380.597	--undefined--	--undefined--	--undefined--	--undefined--
110	0.110	0.00060	547.192	697.257	1459.472	578.648	3776.912	1380.123
111	0.111	0.00041	1140.364	633.752	2271.799	807.780	--undefined--	--undefined--
112	0.112	0.00041	518.157	1125.991	1494.009	1169.213	3350.508	1743.273
113	0.113	0.00026	741.693	382.305	3093.870	949.548	--undefined--	--undefined--
114	0.114	0.00041	321.610	633.228	2126.744	1386.327	3779.896	1232.850
115	0.115	0.00041	528.641	916.663	1361.391	903.916	3597.339	936.010
116	0.116	0.00025	973.864	561.157	1913.572	662.973	--undefined--	--undefined--
117	0.117	0.00034	512.953	502.038	1481.834	447.910	3771.087	1126.913
118	0.118	0.00034	916.244	425.317	3206.979	3000.164	--undefined--	--undefined--
119	0.119	0.00050	931.020	1167.335	2171.842	1294.154	--undefined--	--undefined--
120	0.120	0.00050	885.053	508.671	1949.826	544.942	--undefined--	--undefined--
121	0.121	0.00034	643.779	1264.442	1637.498	1359.092	3098.848	2114.539
122	0.122	0.00056	992.938	432.727	1859.611	436.097	--undefined--	--undefined--
123	0.123	0.00056	724.595	1072.747	1355.721	1040.591	--undefined--	--undefined--
124	0.124	0.00032	502.578	1210.315	1533.874	1188.840	--undefined--	--undefined--
125	0.125	0.00032	413.934	540.352	1264.746	529.837	4779.897	2969.032
126	0.126	0.00029	695.510	701.032	1935.630	1023.788	--undefined--	--undefined--
127	0.127	0.00026	685.341	451.661	1505.909	437.957	4416.604	3013.336
128	0.128	0.00034	864.077	460.435	1728.422	527.183	4457.655	3740.931
129	0.129	0.00034	912.892	424.112	1776.428	374.273	--undefined--	--undefined--
130	0.130	0.00022	737.341	1016.076	2056.405	1069.491	--undefined--	--undefined--
131	0.131	0.00023	452.279	742.329	2083.288	753.954	--undefined--	--undefined--
132	0.132	0.00029	882.329	441.552	1719.300	397.448	--undefined--	--undefined--
133	0.133	0.00034	1954.814	476.073	3248.566	2916.484	--undefined--	--undefined--
134	0.134	0.00034	700.860	467.175	1452.838	518.715	2348.637	780.843
135	0.135	0.00022	434.076	1265.690	1269.601	1154.999	2311.787	1199.400
136	0.136	0.00020	716.738	634.232	2021.940	543.659	--undefined--	--undefined--
137	0.137	0.00025	411.194	826.372	1241.253	712.736	--undefined--	--undefined--
138	0.138	0.00035	360.754	2169.049	1809.190	879.338	3171.254	3076.924
139	0.139	0.00035	890.005	742.776	1784.357	811.104	--undefined--	--undefined--
140	0.140	0.00021	1016.830	830.301	1865.867	979.157	--undefined--	--undefined--
141	0.141	0.00022	851.812	716.711	1863.234	637.519	--undefined--	--undefined--
142	0.142	0.00022	403.822	669.572	1224.989	574.666	3822.597	1790.273
143	0.143	0.00030	897.255	1219.947	1874.718	839.538	--undefined--	--undefined--
144	0.144	0.00030	514.573	651.472	1442.223	578.123	3512.959	4977.873
145	0.145	0.00021	890.622	525.827	1699.018	611.516	--undefined--	--undefined--
146	0.146	0.00024	1132.417	1174.793	2234.680	1084.234	--undefined--	--undefined--
147	0.147	0.00024	929.946	638.675	1695.366	2428.030	--undefined--	--undefined--
148	0.148	0.00029	1012.627	1316.034	2114.806	1112.126	--undefined--	--undefined--
149	0.149	0.00029	436.211	480.430	1370.847	506.408	3192.620	1092.268
150	0.150	0.00017	925.010	738.126	1827.035	691.224	--undefined--	--undefined--
151	0.151	0.00022	972.798	555.184	1902.916	541.152	--undefined--	--undefined--
152	0.152	0.00022	1008.448	757.865	2409.156	1339.380	--undefined--	--undefined--
153	0.153	0.00027	951.739	541.115	1961.290	555.772	--undefined--	--undefined--
154	0.154	0.00027	403.959	831.421	1034.165	5888.351	2301.991	1781.542
155	0.155	0.00021	1123.553	1138.382	2299.733	1403.570	--undefined--	--undefined--
156	0.156	0.00018	1023.820	522.912	1939.944	556.846	--undefined--	--undefined--
157	0.157	0.00024	1010.666	819.464	2316.209	1657.162	--undefined--	--undefined--
158	0.158	0.00025	892.668	550.134	1810.695	541.223	--undefined--	--undefined--
159	0.159	0.00025	689.415	299.941	2339.998	352.600	--undefined--	--undefined--
160	0.160	0.00021	473.223	831.294	1456.932	854.712	2541.716	871.474
161	0.161	0.00021	1006.901	411.186	1886.087	475.622	--undefined--	--undefined--
162	0.162	0.00023	595.175	501.065	1615.296	481.635	--undefined--	--undefined--
163	0.163	0.00023	444.032	489.961	1326.174	476.602	2421.031	1119.962
164	0.164	0.00018	734.247	456.505	2514.619	733.055	--undefined--	--undefined--
165	0.165	0.00021	403.181	739.576	1468.492	1480.136	2385.410	1088.561
166	0.166	0.00021	718.517	541.609	1562.163	516.644	4346.048	3965.848
167	0.167	0.00029	986.808	1026.550	1620.542	1960.000	3483.630	1310.939
168	0.168	0.00029	568.724	909.874	1470.268	647.449	--undefined--	--undefined--
169	0.169	0.00018	814.512	1142.421	2444.801	1188.962	--undefined--	--undefined--
170	0.170	0.00020	483.816	663.488	2099.817	748.330	--undefined--	--undefined--
171	0.171	0.00021	911.620	614.739	1744.847	560.697	--undefined--	--undefined--
172	0.172	0.00024	1066.638	530.254	3200.046	1133.033	--undefined--	--undefined--
173	0.173	0.00024	557.860	563.837	1485.978	469.438	--undefined--	--undefined--
174	0.174	0.00019	902.142	568.758	2099.194	665.869	--undefined--	--undefined--
175	0.175	0.00021	364.706	453.006	2187.672	676.222	--undefined--	--undefined--
176	0.176	0.00021	916.268	676.535	1825.598	686.557	--undefined--	--undefined--
177	0.177	0.00025	797.971	757.789	1820.993	1490.976	3075.200	1740.126
178	0.178	0.00025	591.998	516.992	1483.423	437.110	4893.734	1760.954
179	0.179	0.00018	920.139	653.997	2113.994	783.529	--undefined--	--undefined--
180	0.180	0.00021	482.385	617.925	2378.111	1158.438	--undefined--	--undefined--
181	0.181	0.00024	946.239	636.851	1961.585	815.675	--undefined--	--undefined--
182	0.182	0.00024	731.364	923.636	2044.114	2822.897	--undefined--	--undefined--
183	0.183	0.00023	656.290	556.820	1529.777	529.774	4028.687	2225.178
184	0.184	0.00015	897.800	620.878	1952.585	670.849	--undefined--	--undefined--
185	0.185	0.00017	701.307	207.456	2864.843	586.105	--undefined--	--undefined--
186	0.186	0.00019	923.602	935.008	1881.606	1303.243	--undefined--	--undefined--
187	0.187	0.00020	684.252	690.100	3075.147	2388.092	--undefined--	--undefined--
188	0.188	0.00020	987.452	602.622	1903.096	688.054	--undefined--	--undefined--
189	0.189	0.00015	887.394	762.778	1884.099	735.905	--undefined--	--undefined--
190	0.190	0.00017	378.140	327.832	1796.125	1198.720	3521.780	2626.991
191	0.191	0.00017	490.316	597.524	1393.304	588.875	2593.110	1095.703
192	0.192	0.00017	756.177	444.389	1472.300	889.254	3196.537	1070.073
193	0.193	0.00016	827.831	862.297	1642.405	750.939	--undefined--	--undefined--
194	0.194	0.00014	817.535	1016.863	1922.581	1412.464	--undefined--	--undefined--
195	0.195	0.00014	404.372	518.948	1562.912	1182.746	--undefined--	--undefined--
196	0.196	0.00011	976.491	571.832	1895.554	684.481	--undefined--	--undefined--
197	0.197	0.00009	1023.970	615.054	--undefined--	--undefined--	--undefined--	--undefined--
198	0.198	0.00009	682.270	1283.947	1563.599	1036.988	--undefined--	--undefined--
199	0.199	0.00004	785.516	1214.158	2031.669	1209.212	--undefined--	--undefined--
200	0.200	0.00004	911.371	602.488	1784.892	451.846	--undefined--	--undefined--
201	0.201	0.00003	850.610	680.083	1737.121	592.164	--undefined--	--undefined--
202	0.202	0.00001	640.496	1806.226	1868.622	945.576	--undefined--	--undefined--
203	0.203	0.000008	1197.441	775.377	3685.834	942.685	--undefined--	--undefined--
204	0.204	0.000002	222.144	1417.143	1234.997	1111.388	4561.275	1576.139
205	0.205	0.000003	450.315	976.878	1340.819	793.146	--undefined--	--undefined--
206	0.206	0.000003	793.589	553.977	1629.490	1446.043	4531.381	1618.588
207	0.207	0.000003	392.922	289.279	1208.871	269.090	4947.917	802.062
208	0.208	0.000006	396.530	323.054	1214.947	299.784	4627.175	2133.461
209	0.209	0.000006	441.563	1000.161	1157.663	700.446	3834.069	3577.284
210	0.210	0.000009	462.672	455.281	1345.697	435.552	--undefined--	--undefined--
211	0.211	0.00001	781.961	574.507	1677.276	670.600	--undefined--	--undefined--
212	0.212	0.00001	739.860	835.321	1493.254	852.901	--undefined--	--undefined--
213	0.213	0.000007	552.143	555.484	1306.989	515.430	--undefined--	--undefined--
214	0.214	0.000006	390.845	749.333	1217.113	747.718	4351.499	2499.257
215	0.215	0.000005	405.318	530.267	1242.750	530.249	--undefined--	--undefined--
216	0.216	0.000003	704.163	307.132	1484.635	293.916	5051.998	460.827
217	0.217	0.0000007	477.677	1589.995	1791.005	764.047	--undefined--	--undefined--
218	0.218	0.0000007	1240.046	526.090	3207.895	2985.031	--undefined--	--undefined--
219	0.219	0.000001	600.933	826.242	1710.664	527.824	5019.533	393.999
220	0.220	0.000001	752.546	876.227	1533.470	1129.279	--undefined--	--undefined--
221	0.221	0.000002	439.274	318.668	1311.727	282.006	5130.390	1153.301
222	0.222	0.000002	802.536	389.005	5032.278	1644.073	--undefined--	--undefined--
223	0.223	0.000001	391.880	359.742	1227.986	363.364	4632.156	1324.439
224	0.224	0.000001	705.829	1216.193	1526.124	1551.621	--undefined--	--undefined--
225	0.225	0.000001	397.679	532.092	1257.784	619.327	4851.529	1373.386
226	0.226	0.000001	610.778	1238.567	1168.993	695.406	4949.609	399.092
227	0.227	0.0000006	382.641	448.719	1209.112	482.721	5078.234	823.165
228	0.228	0.0000006	541.207	850.030	1340.165	670.052	4907.522	800.644
229	0.229	0.0000005	382.533	405.893	1203.397	420.385	--undefined--	--undefined--
230	0.230	0.0000005	1036.396	599.290	4840.191	841.517	--undefined--	--undefined--
231	0.231	0.0000004	380.119	744.158	1180.833	868.552	5116.558	1058.744
232	0.232	0.0000004	485.621	443.112	1377.179	373.699	--undefined--	--undefined--
233	0.233	0.0000004	845.795	554.193	--undefined--	--undefined--	--undefined--	--undefined--
234	0.234	0.0000004	547.608	721.345	3458.439	1690.606	--undefined--	--undefined--
235	0.235	0.0000002	830.539	727.135	2057.548	2971.751	--undefined--	--undefined--
236	0.236	0.0000002	414.874	689.084	1307.824	785.423	5078.156	792.794
237	0.237	0.0000003	901.768	612.566	3281.626	2388.660	--undefined--	--undefined--
238	0.238	0.0000003	996.147	606.201	4253.614	4254.501	--undefined--	--undefined--
239	0.239	0.0000002	957.687	664.680	4307.406	1846.800	--undefined--	--undefined--
240	0.240	0.0000002	611.293	679.863	2054.087	896.999	5275.828	1208.388
241	0.241	0.00000004	331.092	1077.777	2342.675	2106.936	--undefined--	--undefined--
242	0.242	0.00000002	814.847	677.869	4653.911	643.621	--undefined--	--undefined--
243	0.243	0.00000002	925.567	433.443	3757.774	1170.922	--undefined--	--undefined--
244	0.244	0.00000006	429.970	706.655	1429.807	724.224	--undefined--	--undefined--
245	0.245	0.00000006	807.194	825.520	3429.004	1646.165	--undefined--	--undefined--
246	0.246	0.00000005	1075.631	873.145	1349.417	1279.622	4837.013	623.046
247	0.247	0.00000003	667.737	902.583	4539.690	3119.157	--undefined--	--undefined--
248	0.248	0.00000004	669.415	876.231	3305.408	2051.763	--undefined--	--undefined--
249	0.249	0.00000004	878.978	592.780	3152.756	4639.197	3426.074	949.284
250	0.250	0.00000003	75.588	962.002	2301.229	1309.027	5013.350	357.622
251	0.251	0.00000003	852.438	670.282	4007.486	1446.007	--undefined--	--undefined--
252	0.252	0.00000003	896.700	754.256	4042.517	1494.877	--undefined--	--undefined--
253	0.253	0.00000004	901.185	1217.251	3010.365	1266.565	4967.841	1286.019
254	0.254	0.00000004	1175.561	1056.190	3946.493	548.416	--undefined--	--undefined--
255	0.255	0.00000003	1242.964	470.270	2692.065	1515.502	5116.908	2101.338
256	0.256	0.00000003	1415.827	1270.949	4529.482	1743.474	--undefined--	--undefined--
257	0.257	0.00000004	579.811	1117.653	3254.643	2640.746	--undefined--	--undefined--
258	0.258	0.00000005	1406.571	1942.118	2940.925	665.629	--undefined--	--undefined--
259	0.259	0.00000005	757.796	889.992	4739.740	1209.019	--undefined--	--undefined--
260	0.260	0.00000005	535.737	753.867	4846.973	963.954	--undefined--	--undefined--
261	0.261	0.00000003	873.128	672.294	3920.995	1758.483	--undefined--	--undefined--
262	0.262	0.00000002	635.371	1517.725	3174.556	994.864	4966.274	1031.233
