frame	time(s)	intensity	F1(Hz)	B1(Hz)	F2(Hz)	B2(Hz)	F3(Hz)	B3(Hz)
1	0.001	0.000003	1044.147	945.721	1806.620	906.028	4392.768	879.208
2	0.002	0.000003	1026.218	535.326	1829.951	637.105	3942.261	457.746
3	0.003	0.000005	1192.729	469.299	4685.454	1001.817	--undefined--	--undefined--
4	0.004	0.000005	1085.454	647.173	1989.072	664.739	--undefined--	--undefined--
5	0.005	0.000005	723.006	951.776	1652.658	804.765	4868.898	640.371
6	0.006	0.000005	1136.488	2286.375	1348.234	950.381	4134.244	745.544
7	0.007	0.000005	992.204	933.169	2843.678	1412.630	4064.447	622.402
8	0.008	0.00002	1538.713	558.645	4354.663	799.018	--undefined--	--undefined--
9	0.009	0.00002	957.450	655.523	1877.980	527.128	4651.215	913.306
10	0.010	0.00003	1033.114	789.150	1916.312	911.794	4431.489	1361.286
11	0.011	0.00003	1366.685	690.780	1797.001	2485.274	4253.302	595.154
12	0.012	0.00002	972.748	669.463	1926.380	529.153	4351.711	525.585
13	0.013	0.00003	918.843	704.711	1902.324	596.800	4193.184	1796.093
14	0.014	0.00003	1049.119	483.845	1938.664	443.206	--undefined--	--undefined--
15	0.015	0.00002	1225.668	1477.574	1682.182	1405.956	5014.657	1373.190
16	0.016	0.00005	1242.706	1255.169	1894.487	1619.701	4385.612	853.737
17	0.017	0.00005	1114.825	519.822	1980.266	537.987	4604.644	857.367
18	0.018	0.00003	1729.707	805.798	4205.298	1182.466	--undefined--	--undefined--
19	0.019	0.00003	1250.025	402.092	4264.314	980.027	--undefined--	--undefined--
20	0.020	0.00003	1194.139	537.378	2113.816	544.499	--undefined--	--undefined--
21	0.021	0.00003	1268.340	671.332	1994.499	1163.161	4389.795	716.844
22	0.022	0.00004	991.364	534.329	1915.122	426.693	5101.776	903.210
23	0.023	0.00004	845.921	534.980	1737.400	356.329	4562.286	664.866
24	0.024	0.00003	1177.518	691.417	1945.818	1802.976	4340.984	788.493
25	0.025	0.00002	1056.076	810.053	2114.900	1122.086	4992.685	426.295
26	0.026	0.000009	874.361	1414.016	4091.914	680.667	--undefined--	--undefined--
27	0.027	0.00002	1874.017	795.435	3978.056	972.135	--undefined--	--undefined--
28	0.028	0.00002	1015.431	3493.910	1422.438	716.315	4460.485	579.883
29	0.029	0.00002	1842.595	1611.328	4386.051	766.097	--undefined--	--undefined--
30	0.030	0.00001	1393.090	429.510	2665.331	860.472	5079.711	781.216
31	0.031	0.00002	957.170	665.781	1908.748	616.312	4650.750	646.563
32	0.032	0.00002	2462.797	1671.420	4309.151	1022.311	--undefined--	--undefined--
33	0.033	0.00004	703.850	2140.431	1462.740	1039.060	4094.860	428.032
34	0.034	0.00008	814.879	1846.864	1560.008	938.938	4177.187	507.245
35	0.035	0.00008	1047.987	639.357	1847.773	710.589	4322.343	757.919
36	0.036	0.00007	419.378	434.574	1975.764	329.700	4524.336	636.342
37	0.037	0.00090	1139.705	409.801	2013.116	369.051	4949.447	826.660
38	0.038	0.00090	983.281	497.935	1863.659	494.329	4446.921	753.620
39	0.039	0.00051	1024.034	600.790	1811.488	648.131	4748.190	1009.642
40	0.040	0.00646	1130.441	1328.435	3499.964	938.561	--undefined--	--undefined--
41	0.041	0.00646	722.513	3570.389	1377.361	668.507	4371.848	780.536
42	0.042	0.00601	1000.135	459.151	1882.006	519.174	3743.552	1317.290
43	0.043	0.00187	699.973	750.252	1573.167	622.555	4060.824	874.610
44	0.044	0.00389	716.360	647.872	1787.904	510.651	5300.263	1819.532
45	0.045	0.00615	1382.293	764.917	4418.765	876.701	--undefined--	--undefined--
46	0.046	0.00615	1178.056	624.802	2067.264	583.017	--undefined--	--undefined--
47	0.047	0.00208	788.579	594.160	1671.183	490.264	4433.642	873.053
48	0.048	0.00925	973.935	907.518	2689.428	1623.343	--undefined--	--undefined--
49	0.049	0.00981	896.841	892.531	1729.788	761.731	4120.513	513.054
50	0.050	0.00981	970.394	505.394	1797.605	618.992	4127.686	1052.700
51	0.051	0.00417	960.365	464.138	1837.397	472.941	4013.376	1821.671
52	0.052	0.02297	755.159	617.392	3173.976	1093.916	--undefined--	--undefined--
53	0.053	0.02297	1167.493	1044.584	1613.787	1512.258	4079.150	593.661
54	0.054	0.00954	653.042	1462.523	1341.477	692.030	4128.100	491.921
55	0.055	0.01913	970.946	641.327	1870.778	606.825	--undefined--	--undefined--
56	0.056	0.02290	1161.923	945.816	3983.578	753.619	--undefined--	--undefined--
57	0.057	0.02290	1310.055	914.443	1314.512	2903.506	4157.100	1012.004
58	0.058	0.00503	1102.947	671.566	1728.410	1559.188	4142.871	912.418
59	0.059	0.02942	1169.948	527.833	2094.165	481.734	--undefined--	--undefined--
60	0.060	0.03260	1228.981	730.860	4031.449	896.897	--undefined--	--undefined--
61	0.061	0.03260	956.355	1418.991	1518.998	880.156	4448.328	1369.254
62	0.062	0.00733	790.371	779.875	1707.593	592.970	5067.358	1752.267
63	0.063	0.03580	1154.044	521.312	2902.907	957.529	--undefined--	--undefined--
64	0.064	0.03580	1249.918	795.853	1522.363	2914.268	4049.877	538.024
65	0.065	0.01489	937.373	474.392	1729.435	536.048	4153.391	1575.523
66	0.066	0.00814	1140.091	727.420	2047.116	850.653	--undefined--	--undefined--
67	0.067	0.05306	1071.370	1157.582	3925.063	1257.546	--undefined--	--undefined--
68	0.068	0.05306	1355.835	675.622	4092.739	724.006	--undefined--	--undefined--
69	0.069	0.02221	1033.142	620.071	1905.143	606.472	--undefined--	--undefined--
70	0.070	0.06415	943.535	566.904	1858.948	533.553	--undefined--	--undefined--
71	0.071	0.06415	1190.147	776.851	4072.229	710.020	--undefined--	--undefined--
72	0.072	0.05986	875.158	1473.893	1476.336	800.094	4320.140	840.091
73	0.073	0.01149	888.778	846.324	1758.706	718.797	--undefined--	--undefined--
74	0.074	0.03771	1205.575	469.796	3956.730	1410.605	--undefined--	--undefined--
75	0.075	0.03771	1174.474	701.531	2002.926	2216.962	4081.037	558.972
76	0.076	0.02139	855.920	1054.449	1528.484	749.458	4254.672	826.025
77	0.077	0.04772	906.443	547.351	1803.759	482.164	4046.371	1286.759
78	0.078	0.04772	1317.275	498.447	4094.457	962.777	--undefined--	--undefined--
79	0.079	0.03787	993.153	585.360	1850.156	725.476	4799.347	1322.897
80	0.080	0.01361	896.574	842.399	1845.272	653.450	--undefined--	--undefined--
81	0.081	0.07257	1268.983	558.320	2903.478	2670.622	--undefined--	--undefined--
82	0.082	0.07257	1136.708	654.676	1948.886	1415.519	4074.215	518.591
83	0.083	0.02095	837.435	512.739	1693.255	454.499	4020.505	1073.799
84	0.084	0.09233	1123.005	722.445	2016.369	703.989	--undefined--	--undefined--
85	0.085	0.09233	1289.916	591.054	2124.220	5295.947	4168.547	774.837
86	0.086	0.06321	1063.577	3403.526	1323.353	678.267	4278.020	1293.381
87	0.087	0.01176	826.983	930.080	1727.623	750.629	4546.659	1536.573
88	0.088	0.04862	1258.838	718.085	2370.377	2196.103	4375.242	1195.786
89	0.089	0.04862	1358.640	650.000	4101.161	660.972	--undefined--	--undefined--
90	0.090	0.03048	1006.785	862.670	1702.873	918.955	--undefined--	--undefined--
91	0.091	0.05174	1095.105	632.503	1877.636	875.972	--undefined--	--undefined--
92	0.092	0.05174	1412.442	678.293	4153.447	673.452	--undefined--	--undefined--
93	0.093	0.03566	1067.597	669.669	1834.326	990.427	4143.484	703.126
94	0.094	0.08489	975.492	526.690	1805.468	523.718	--undefined--	--undefined--
95	0.095	0.08489	1356.097	606.146	4083.360	613.186	--undefined--	--undefined--
96	0.096	0.07866	1223.208	684.124	1897.018	1981.484	4394.848	1094.534
97	0.097	0.01592	769.327	713.200	1698.010	603.660	3109.048	1280.313
98	0.098	0.04301	1274.040	672.472	2379.467	1519.041	4126.303	1266.869
99	0.099	0.04301	819.540	2928.781	1390.294	749.065	4125.079	594.928
100	0.100	0.02894	883.292	563.064	1704.758	478.662	4422.915	1627.995
101	0.101	0.06652	1091.706	612.276	1816.124	607.337	4637.338	903.596
102	0.102	0.06652	1342.195	787.388	1537.471	2368.536	4158.884	551.162
103	0.103	0.02535	1043.572	748.194	1955.269	827.730	2876.598	4333.071
104	0.104	0.04902	1282.350	507.314	2255.584	738.035	--undefined--	--undefined--
105	0.105	0.04902	1135.184	3976.615	1400.690	827.868	4222.253	912.611
106	0.106	0.03537	1056.673	685.173	1795.389	771.950	4063.762	560.483
107	0.107	0.05769	1215.720	3812.595	1328.093	511.007	4195.985	1099.228
108	0.108	0.07187	1252.867	689.673	1988.129	1717.372	4172.441	595.010
109	0.109	0.07187	967.741	876.001	1782.288	760.122	4345.218	1224.913
110	0.110	0.03430	913.589	643.917	1774.559	626.703	3832.907	1355.150
111	0.111	0.05197	713.480	3663.497	1450.445	678.906	4171.758	633.804
112	0.112	0.05197	1130.482	659.631	1968.837	981.510	4190.798	1244.289
113	0.113	0.03011	759.331	647.177	1706.222	505.180	3903.405	723.913
114	0.114	0.03550	1447.665	946.834	1478.835	2203.551	4063.058	591.085
115	0.115	0.03550	1156.048	708.276	1946.704	1076.562	4229.407	988.103
116	0.116	0.02475	787.869	756.945	1657.542	577.726	4365.762	700.363
117	0.117	0.04206	1500.834	996.624	1671.960	4340.136	4025.397	793.535
118	0.118	0.04206	1021.488	537.261	1891.418	547.522	3999.763	694.257
119	0.119	0.03048	809.137	591.091	1721.935	460.185	4470.541	1315.412
120	0.120	0.04316	794.458	4269.763	1521.717	1071.241	4057.610	948.265
121	0.121	0.04316	1091.943	615.257	1911.825	735.098	4101.961	526.125
122	0.122	0.02989	805.062	757.327	1726.513	590.445	4241.260	1134.892
123	0.123	0.04289	1464.605	773.065	4075.560	821.972	--undefined--	--undefined--
124	0.124	0.04289	1073.266	521.493	1940.373	615.044	3913.074	600.848
125	0.125	0.03599	801.156	857.443	1704.947	622.202	4153.862	587.210
126	0.126	0.05438	1287.281	4348.924	1420.677	667.577	4083.494	652.204
127	0.127	0.05438	1011.930	777.161	1893.813	785.883	3913.738	782.135
128	0.128	0.04031	756.826	687.743	1630.525	484.360	3896.628	496.114
129	0.129	0.03830	1300.945	815.168	2650.378	2748.765	4067.455	927.326
130	0.130	0.03830	982.704	542.705	1849.373	511.625	3844.072	486.621
131	0.131	0.02997	1105.009	666.793	2144.814	950.564	4007.798	889.523
132	0.132	0.04855	1027.472	699.778	1874.573	663.801	4076.819	517.811
133	0.133	0.04855	936.885	523.667	1834.440	445.190	3711.910	977.712
134	0.134	0.03308	2348.761	946.900	3789.892	1849.324	--undefined--	--undefined--
135	0.135	0.04849	1055.813	823.606	1927.795	908.034	3996.111	681.309
136	0.136	0.04849	998.683	434.016	1874.950	440.147	4109.214	2109.854
137	0.137	0.03317	1128.605	1176.296	3896.088	586.419	--undefined--	--undefined--
138	0.138	0.03388	1033.192	495.904	1908.071	497.342	4060.974	829.912
139	0.139	0.03388	752.052	588.873	1760.535	444.976	4174.359	1275.573
140	0.140	0.03258	976.891	915.275	1913.823	988.507	3949.016	806.830
141	0.141	0.03258	992.499	374.134	1856.385	351.285	3754.753	1134.842
142	0.142	0.02119	962.656	707.781	3740.027	765.769	--undefined--	--undefined--
143	0.143	0.02833	996.159	778.538	1874.662	779.501	3979.222	676.649
144	0.144	0.02833	964.729	413.801	1809.860	426.419	3809.625	952.508
145	0.145	0.04040	505.867	6227.194	1246.660	548.836	3965.467	693.964
146	0.146	0.04040	904.754	658.878	1844.751	578.233	3545.925	899.344
147	0.147	0.02870	1121.779	691.533	1839.275	3301.095	3444.084	2818.720
148	0.148	0.02870	1024.076	476.103	1875.966	502.615	4136.005	589.968
149	0.149	0.02166	896.426	624.917	1770.710	540.450	3564.792	1311.364
150	0.150	0.02848	1141.936	2182.227	1338.934	954.021	3996.498	693.737
151	0.151	0.02848	936.747	449.031	1818.104	391.372	3796.326	991.377
152	0.152	0.03131	915.728	746.003	1688.653	894.204	3577.721	447.612
153	0.153	0.03131	1048.672	553.595	1848.388	610.620	4052.879	494.241
154	0.154	0.03853	937.070	711.200	1770.121	712.496	3866.576	728.927
155	0.155	0.03853	988.625	883.153	1736.458	909.905	3981.646	587.832
156	0.156	0.03311	913.135	565.889	1789.772	494.283	4058.414	662.465
157	0.157	0.03508	917.553	742.514	1664.802	640.432	4068.443	637.420
158	0.158	0.03508	1034.846	517.236	1846.044	551.446	3924.538	411.674
159	0.159	0.02978	1141.127	862.177	1708.594	1307.046	4010.398	828.136
160	0.160	0.03040	1180.282	829.884	1722.964	1146.841	4055.372	598.507
161	0.161	0.03040	868.853	829.030	1822.722	702.060	3997.677	638.787
162	0.162	0.03303	1127.740	855.654	1879.356	1263.627	4005.706	1105.207
163	0.163	0.03303	988.900	694.566	1871.571	621.066	3931.384	631.939
164	0.164	0.02956	955.597	855.826	1624.018	735.411	4279.411	517.610
165	0.165	0.02956	984.606	708.016	1923.772	688.328	3635.985	736.691
166	0.166	0.02987	1197.954	816.333	1615.628	1401.245	3963.858	601.978
167	0.167	0.03805	950.491	975.629	1904.558	965.932	3861.759	837.050
168	0.168	0.03805	1078.206	680.616	1871.383	863.321	4011.609	503.014
169	0.169	0.03341	966.034	549.074	1855.067	508.593	4189.235	996.685
170	0.170	0.03341	1028.308	429.248	1930.011	385.736	4042.365	832.050
171	0.171	0.04610	1004.006	436.312	1793.683	493.401	3975.468	714.249
172	0.172	0.04610	1110.945	757.150	1922.374	893.056	4154.252	780.205
173	0.173	0.03715	1237.782	491.854	3771.594	1429.010	--undefined--	--undefined--
174	0.174	0.03627	1065.312	1058.802	1955.187	1072.241	4099.883	1012.277
175	0.175	0.03627	1066.186	562.301	1976.684	735.115	3857.636	980.356
176	0.176	0.02830	1278.637	530.330	2283.614	652.738	4441.635	1593.172
177	0.177	0.02830	1079.091	620.081	1998.935	595.501	4030.602	934.542
178	0.178	0.02341	1594.735	728.605	3730.134	1148.082	--undefined--	--undefined--
179	0.179	0.02341	1089.572	762.132	2016.599	819.835	3977.209	686.095
180	0.180	0.01803	1244.929	539.453	3739.190	803.691	--undefined--	--undefined--
181	0.181	0.01803	1393.918	671.831	1729.208	2328.602	4169.155	659.514
182	0.182	0.01403	764.940	983.205	1893.477	866.260	4007.904	829.407
183	0.183	0.02709	1425.720	1252.759	2201.210	3553.253	4128.860	1939.690
184	0.184	0.02709	1191.777	693.864	2137.287	1018.883	3853.560	1678.040
185	0.185	0.02089	1573.657	1369.063	2848.439	1850.074	--undefined--	--undefined--
186	0.186	0.02089	1075.813	782.257	1974.847	706.333	3901.322	1345.475
187	0.187	0.02270	1105.398	760.023	2276.420	1194.472	5014.306	1013.764
188	0.188	0.02270	1127.174	517.784	2047.616	588.022	3972.616	800.220
189	0.189	0.01297	1233.690	899.156	2731.861	1659.772	4107.998	1227.348
190	0.190	0.02023	1167.342	915.598	2047.385	1152.952	3976.971	826.853
191	0.191	0.02023	277.100	1173.398	2524.237	692.420	4085.410	1172.236
192	0.192	0.01773	1403.260	582.778	1861.595	4416.281	4079.299	744.285
193	0.193	0.01998	601.967	1311.001	1915.823	831.975	4135.403	618.414
194	0.194	0.02348	1318.299	1016.056	2017.448	2797.851	3971.183	857.596
195	0.195	0.02348	990.975	750.812	1978.837	717.184	3962.018	706.999
196	0.196	0.02078	1062.301	1289.249	2356.865	1494.906	3965.749	883.643
197	0.197	0.02078	1180.001	587.212	2180.193	786.847	3814.025	701.407
198	0.198	0.02623	1052.312	1435.150	2363.753	1300.881	3924.808	877.653
199	0.199	0.02623	1075.427	690.184	2019.883	640.523	3903.473	646.305
200	0.200	0.01866	1855.511	1184.812	3917.179	1296.314	--undefined--	--undefined--
201	0.201	0.01866	1060.056	547.672	1978.833	473.876	3977.216	549.536
202	0.202	0.02425	1869.039	526.765	4113.411	1074.804	--undefined--	--undefined--
203	0.203	0.02425	1167.443	543.472	2125.964	668.572	3845.970	549.209
204	0.204	0.02117	1110.538	1273.315	2491.777	942.147	4011.955	1037.520
205	0.205	0.02117	1175.619	759.104	2134.132	1032.309	3952.959	749.380
206	0.206	0.02217	632.445	1031.281	2571.961	617.757	4170.199	1084.350
207	0.207	0.02217	1263.170	999.355	1883.354	1784.050	3956.269	615.329
208	0.208	0.02137	666.943	563.583	2566.635	1065.466	4032.591	616.941
209	0.209	0.01994	1419.488	646.982	4006.482	644.680	--undefined--	--undefined--
210	0.210	0.01994	798.401	1601.341	1345.482	2289.134	4124.890	902.046
211	0.211	0.01974	1358.479	660.143	1949.068	4014.859	3974.251	675.417
212	0.212	0.01974	1298.146	1118.922	4131.291	787.913	--undefined--	--undefined--
213	0.213	0.01666	1245.461	694.779	2287.173	1766.962	4005.667	636.525
214	0.214	0.02518	771.502	840.603	1713.743	937.132	3878.561	571.307
215	0.215	0.02518	1272.760	909.559	2700.636	2204.521	4110.466	1204.853
216	0.216	0.02043	945.116	736.026	1890.975	1219.496	3832.036	476.662
217	0.217	0.01732	1075.839	979.405	2464.493	1424.407	4011.334	852.270
218	0.218	0.01732	1110.276	717.039	2064.515	1884.538	3763.660	966.645
219	0.219	0.02234	1081.694	1326.743	2563.281	2181.891	4098.434	1892.492
220	0.220	0.02234	1062.729	588.664	2119.587	1281.931	3782.262	631.082
221	0.221	0.02266	956.220	1346.963	2558.420	1967.939	4035.985	1584.550
222	0.222	0.02266	1076.792	628.686	2116.541	1236.088	3861.399	604.191
223	0.223	0.02197	922.888	1213.494	2372.149	1780.272	3898.990	1239.996
224	0.224	0.02197	1141.626	714.767	2070.271	1771.830	3971.726	766.143
225	0.225	0.02212	903.999	1197.718	2335.300	1489.300	3828.865	1032.211
226	0.226	0.02212	1143.082	731.543	1958.784	2103.677	3956.731	679.196
227	0.227	0.02344	927.076	1300.569	2362.017	1605.809	3952.027	1172.213
228	0.228	0.02344	1238.964	701.148	1495.823	3044.817	4035.415	843.681
229	0.229	0.02819	948.134	1285.439	2387.072	1575.759	3895.830	1108.836
230	0.230	0.02819	1211.571	3544.250	1236.416	637.336	4058.887	728.160
231	0.231	0.02665	980.560	1293.656	2342.597	1532.584	3827.288	1406.716
232	0.232	0.02665	1258.234	561.213	4096.083	783.626	--undefined--	--undefined--
233	0.233	0.02342	1026.866	1104.649	2225.178	1227.357	3724.565	1166.774
234	0.234	0.02554	1236.807	645.383	1482.410	2358.331	4025.338	468.968
235	0.235	0.02554	1036.039	929.532	2218.927	1028.690	3702.151	897.869
236	0.236	0.02152	997.986	565.843	1812.514	676.926	4026.003	416.880
237	0.237	0.02152	1067.083	731.583	2153.445	826.471	3693.386	810.435
238	0.238	0.02065	1000.575	551.976	1954.038	655.733	3879.044	867.544
239	0.239	0.02065	1103.581	639.436	2073.574	814.298	3894.115	625.659
240	0.240	0.01430	1044.539	822.894	2067.374	1061.552	3834.578	1226.993
241	0.241	0.01399	1036.344	508.040	1959.478	530.499	3906.649	475.349
242	0.242	0.01277	1052.540	1179.362	1901.475	1577.273	2832.564	1545.230
243	0.243	0.01316	956.777	677.366	1856.259	594.594	3979.348	437.982
244	0.244	0.01316	1116.218	1147.834	2226.698	1054.632	--undefined--	--undefined--
245	0.245	0.01199	982.311	1243.284	1751.123	1240.314	3976.243	972.922
246	0.246	0.01199	1273.424	805.088	2468.705	771.205	--undefined--	--undefined--
247	0.247	0.00945	873.025	1041.235	1823.769	1118.972	3818.049	714.273
248	0.248	0.00718	1144.556	850.036	2635.224	1409.353	--undefined--	--undefined--
249	0.249	0.00718	1173.547	1155.783	1239.602	2268.541	3881.636	762.132
250	0.250	0.00794	999.485	507.797	2058.664	1200.256	3486.059	651.576
251	0.251	0.00794	986.096	729.676	1822.348	1167.951	3827.767	665.217
252	0.252	0.01191	1174.824	495.689	3430.830	852.326	--undefined--	--undefined--
253	0.253	0.01191	1204.021	554.968	1409.695	3049.715	3925.190	684.303
254	0.254	0.01053	825.222	1160.312	1541.165	1259.106	3543.213	571.035
255	0.255	0.01053	1127.310	1699.594	1297.557	833.406	4111.742	1013.585
256	0.256	0.01080	812.908	1075.178	1861.188	1380.382	3676.124	756.799
257	0.257	0.01115	853.995	664.369	1643.787	528.492	4053.841	693.028
258	0.258	0.01115	906.304	913.542	2015.028	1416.727	3630.518	629.394
259	0.259	0.01382	1040.797	587.041	1810.762	787.812	4196.234	640.870
260	0.260	0.01382	1063.283	584.218	2482.452	2309.441	3628.085	750.669
261	0.261	0.01534	891.510	741.848	1766.872	715.010	4315.146	1059.255
262	0.262	0.01534	959.077	557.737	2441.925	3972.987	3736.053	452.158
263	0.263	0.01810	832.623	1112.477	1626.615	905.504	4273.706	954.829
264	0.264	0.01810	1140.276	721.613	3842.156	784.972	--undefined--	--undefined--
265	0.265	0.01549	971.909	1038.874	1474.197	871.543	4127.612	739.364
266	0.266	0.01549	1290.717	661.251	4161.041	868.759	--undefined--	--undefined--
267	0.267	0.01763	1261.243	637.791	2065.692	5633.152	3926.523	2945.353
268	0.268	0.01763	980.509	572.285	1901.493	730.633	3969.858	591.944
269	0.269	0.01346	1008.843	1152.618	2052.396	1534.075	3766.455	1105.994
270	0.270	0.01900	1002.909	519.236	1902.137	577.569	4192.850	1329.284
271	0.271	0.01900	1284.337	1606.251	3033.763	2033.173	--undefined--	--undefined--
272	0.272	0.01748	956.034	507.105	1818.247	461.716	--undefined--	--undefined--
273	0.273	0.01748	1048.351	1042.193	2386.824	1517.265	3557.550	1487.054
274	0.274	0.01567	804.435	3958.890	1284.436	467.089	4497.570	1087.444
275	0.275	0.01567	854.098	447.768	2337.115	490.305	4114.985	499.936
276	0.276	0.02145	1224.159	401.032	4025.197	848.285	--undefined--	--undefined--
277	0.277	0.02145	584.382	1081.525	2512.302	648.464	4949.678	1173.172
278	0.278	0.01045	1047.657	699.016	2453.303	1333.515	--undefined--	--undefined--
